05/17/2022	16:35:33	Ver.	4.1	UNKNOWN
Optical Delay	639.989416	Delta X		0.078125	Sweeps	1	Scan Rate	0/0
Coordinates	Axis 1	NaN	Axis 2	NaN	Axis 3	NaN	Axis 4	NaN	Axis 5	NaN	Axis 6	0.000000
TX Power	0.000000	RX Power	0.000000

639.989	0.0155650
640.068	0.0155560
640.146	0.0156097
640.224	0.0156357
640.302	0.0156232
640.380	0.0155557
640.458	0.0156075
640.536	0.0155438
640.614	0.0156436
640.693	0.0155742
640.771	0.0155231
640.849	0.0155540
640.927	0.0156817
641.005	0.0156974
641.083	0.0156340
641.161	0.0156575
641.239	0.0156061
641.318	0.0155829
641.396	0.0156834
641.474	0.0153966
641.552	0.0155078
641.630	0.0156172
641.708	0.0154976
641.786	0.0155647
641.864	0.0156108
641.943	0.0154614
642.021	0.0156324
642.099	0.0155099
642.177	0.0156855
642.255	0.0156206
642.333	0.0156813
642.411	0.0155321
642.489	0.0155313
642.568	0.0155651
642.646	0.0155571
642.724	0.0155241
642.802	0.0155953
642.880	0.0155704
642.958	0.0156254
643.036	0.0156924
643.114	0.0154146
643.193	0.0156973
643.271	0.0157558
643.349	0.0156825
643.427	0.0155708
643.505	0.0154964
643.583	0.0155497
643.661	0.0156162
643.739	0.0156554
643.818	0.0156206
643.896	0.0156746
643.974	0.0155244
644.052	0.0155221
644.130	0.0155595
644.208	0.0154939
644.286	0.0156092
644.364	0.0156418
644.443	0.0155534
644.521	0.0155572
644.599	0.0156303
644.677	0.0155785
644.755	0.0156712
644.833	0.0155856
644.911	0.0155740
644.989	0.0156640
645.068	0.0156352
645.146	0.0155458
645.224	0.0156073
645.302	0.0156382
645.380	0.0155120
645.458	0.0156478
645.536	0.0153810
645.614	0.0154523
645.693	0.0155675
645.771	0.0154785
645.849	0.0156108
645.927	0.0156049
646.005	0.0155719
646.083	0.0155920
646.161	0.0156706
646.239	0.0156481
646.318	0.0156586
646.396	0.0155053
646.474	0.0155173
646.552	0.0155710
646.630	0.0155077
646.708	0.0156027
646.786	0.0155975
646.864	0.0156207
646.943	0.0155429
647.021	0.0156189
647.099	0.0155894
647.177	0.0154395
647.255	0.0156339
647.333	0.0155959
647.411	0.0156588
647.489	0.0155037
647.568	0.0156130
647.646	0.0156596
647.724	0.0155236
647.802	0.0155916
647.880	0.0156513
647.958	0.0155405
648.036	0.0156232
648.114	0.0155508
648.193	0.0155563
648.271	0.0155055
648.349	0.0154943
648.427	0.0156125
648.505	0.0156216
648.583	0.0157460
648.661	0.0157364
648.739	0.0155078
648.818	0.0156136
648.896	0.0156269
648.974	0.0155477
649.052	0.0154218
649.130	0.0155990
649.208	0.0154048
649.286	0.0153996
649.364	0.0156140
649.443	0.0155057
649.521	0.0155810
649.599	0.0155830
649.677	0.0155547
649.755	0.0155903
649.833	0.0155286
649.911	0.0154652
649.989	0.0155289
650.068	0.0157211
650.146	0.0156140
650.224	0.0155638
650.302	0.0156294
650.380	0.0155088
650.458	0.0155602
650.536	0.0156606
650.614	0.0155145
650.693	0.0156506
650.771	0.0156316
650.849	0.0155528
650.927	0.0155727
651.005	0.0157283
651.083	0.0156371
651.161	0.0155472
651.239	0.0153539
651.318	0.0156358
651.396	0.0155684
651.474	0.0155181
651.552	0.0156516
651.630	0.0155117
651.708	0.0155617
651.786	0.0156243
651.864	0.0155556
651.943	0.0154176
652.021	0.0155904
652.099	0.0156100
652.177	0.0155167
652.255	0.0155680
652.333	0.0155618
652.411	0.0156285
652.489	0.0155176
652.568	0.0155215
652.646	0.0155164
652.724	0.0155576
652.802	0.0154482
652.880	0.0156059
652.958	0.0156102
653.036	0.0155851
653.114	0.0156731
653.193	0.0154829
653.271	0.0155282
653.349	0.0156261
653.427	0.0153999
653.505	0.0156381
653.583	0.0154611
653.661	0.0155833
653.739	0.0155630
653.818	0.0155284
653.896	0.0154329
653.974	0.0156333
654.052	0.0155374
654.130	0.0155659
654.208	0.0155772
654.286	0.0155725
654.364	0.0155556
654.443	0.0154874
654.521	0.0154404
654.599	0.0156333
654.677	0.0155170
654.755	0.0154663
654.833	0.0155170
654.911	0.0154366
654.989	0.0154565
655.068	0.0155080
655.146	0.0155014
655.224	0.0155173
655.302	0.0155676
655.380	0.0154830
655.458	0.0155242
655.536	0.0154610
655.614	0.0154707
655.693	0.0154633
655.771	0.0155007
655.849	0.0154000
655.927	0.0156175
656.005	0.0155235
656.083	0.0155454
656.161	0.0154049
656.239	0.0156123
656.318	0.0156514
656.396	0.0156181
656.474	0.0155317
656.552	0.0155106
656.630	0.0154949
656.708	0.0154541
656.786	0.0156579
656.864	0.0155779
656.943	0.0154739
657.021	0.0155360
657.099	0.0155579
657.177	0.0154327
657.255	0.0156275
657.333	0.0156043
657.411	0.0156036
657.489	0.0154700
657.568	0.0155283
657.646	0.0155500
657.724	0.0155894
657.802	0.0155899
657.880	0.0154048
657.958	0.0154821
658.036	0.0155160
658.114	0.0155322
658.193	0.0155151
658.271	0.0155520
658.349	0.0156149
658.427	0.0155162
658.505	0.0155230
658.583	0.0155364
658.661	0.0155402
658.739	0.0155753
658.818	0.0155477
658.896	0.0155184
658.974	0.0154144
659.052	0.0155721
659.130	0.0154038
659.208	0.0156017
659.286	0.0155126
659.364	0.0154666
659.443	0.0154783
659.521	0.0154841
659.599	0.0155416
659.677	0.0155808
659.755	0.0155894
659.833	0.0155091
659.911	0.0155621
659.989	0.0154994
660.068	0.0155836
660.146	0.0155796
660.224	0.0155179
660.302	0.0155709
660.380	0.0154123
660.458	0.0155396
660.536	0.0155814
660.614	0.0155238
660.693	0.0155041
660.771	0.0155215
660.849	0.0155069
660.927	0.0156438
661.005	0.0155116
661.083	0.0155393
661.161	0.0155660
661.239	0.0156133
661.318	0.0155877
661.396	0.0156028
661.474	0.0155776
661.552	0.0155070
661.630	0.0156123
661.708	0.0154952
661.786	0.0154733
661.864	0.0156252
661.943	0.0156269
662.021	0.0155944
662.099	0.0155942
662.177	0.0155116
662.255	0.0154937
662.333	0.0155402
662.411	0.0156580
662.489	0.0155713
662.568	0.0155151
662.646	0.0155164
662.724	0.0156200
662.802	0.0155029
662.880	0.0156620
662.958	0.0156133
663.036	0.0156337
663.114	0.0156303
663.193	0.0155714
663.271	0.0155607
663.349	0.0154690
663.427	0.0155827
663.505	0.0156271
663.583	0.0155149
663.661	0.0155201
663.739	0.0154723
663.818	0.0154367
663.896	0.0155109
663.974	0.0155065
664.052	0.0154834
664.130	0.0156544
664.208	0.0156898
664.286	0.0154288
664.364	0.0155615
664.443	0.0157242
664.521	0.0156120
664.599	0.0155319
664.677	0.0156030
664.755	0.0154604
664.833	0.0154653
664.911	0.0155154
664.989	0.0154774
665.068	0.0154625
665.146	0.0155495
665.224	0.0155296
665.302	0.0153909
665.380	0.0156428
665.458	0.0154974
665.536	0.0156451
665.614	0.0154839
665.693	0.0155310
665.771	0.0154733
665.849	0.0154501
665.927	0.0154581
666.005	0.0154207
666.083	0.0156242
666.161	0.0155042
666.239	0.0153880
666.318	0.0154314
666.396	0.0155273
666.474	0.0156903
666.552	0.0154868
666.630	0.0155458
666.708	0.0155589
666.786	0.0155930
666.864	0.0155343
666.943	0.0155717
667.021	0.0154137
667.099	0.0153675
667.177	0.0155820
667.255	0.0156198
667.333	0.0154195
667.411	0.0154935
667.489	0.0154668
667.568	0.0154614
667.646	0.0156466
667.724	0.0155140
667.802	0.0154490
667.880	0.0152784
667.958	0.0155798
668.036	0.0155074
668.114	0.0154649
668.193	0.0155830
668.271	0.0154807
668.349	0.0154836
668.427	0.0155732
668.505	0.0154978
668.583	0.0154827
668.661	0.0155933
668.739	0.0155991
668.818	0.0154009
668.896	0.0154723
668.974	0.0155492
669.052	0.0158237
669.130	0.0155864
669.208	0.0154578
669.286	0.0155588
669.364	0.0155160
669.443	0.0155020
669.521	0.0155402
669.599	0.0155807
669.677	0.0154697
669.755	0.0155626
669.833	0.0155470
669.911	0.0155356
669.989	0.0155329
670.068	0.0155879
670.146	0.0156825
670.224	0.0156657
670.302	0.0155706
670.380	0.0158006
670.458	0.0154381
670.536	0.0154636
670.614	0.0156417
670.693	0.0156291
670.771	0.0155333
670.849	0.0155671
670.927	0.0156036
671.005	0.0155264
671.083	0.0156077
671.161	0.0158212
671.239	0.0155506
671.318	0.0156252
671.396	0.0156298
671.474	0.0156559
671.552	0.0155424
671.630	0.0156567
671.708	0.0157285
671.786	0.0157188
671.864	0.0156509
671.943	0.0155141
672.021	0.0156997
672.099	0.0155733
672.177	0.0156498
672.255	0.0156355
672.333	0.0156983
672.411	0.0156228
672.489	0.0157489
672.568	0.0157915
672.646	0.0157281
672.724	0.0156939
672.802	0.0155688
672.880	0.0156838
672.958	0.0157603
673.036	0.0155492
673.114	0.0154772
673.193	0.0157613
673.271	0.0156546
673.349	0.0156564
673.427	0.0155440
673.505	0.0157417
673.583	0.0157080
673.661	0.0155790
673.739	0.0156835
673.818	0.0157226
673.896	0.0157697
673.974	0.0155712
674.052	0.0155568
674.130	0.0155489
674.208	0.0157101
674.286	0.0156809
674.364	0.0156887
674.443	0.0156419
674.521	0.0156161
674.599	0.0157468
674.677	0.0156081
674.755	0.0155416
674.833	0.0157691
674.911	0.0156897
674.989	0.0156525
675.068	0.0155855
675.146	0.0155116
675.224	0.0155499
675.302	0.0157205
675.380	0.0156634
675.458	0.0156396
675.536	0.0156878
675.614	0.0154974
675.693	0.0155028
675.771	0.0156013
675.849	0.0155943
675.927	0.0155245
676.005	0.0156001
676.083	0.0156183
676.161	0.0157405
676.239	0.0155559
676.318	0.0155071
676.396	0.0155933
676.474	0.0154521
676.552	0.0156190
676.630	0.0155323
676.708	0.0156467
676.786	0.0156234
676.864	0.0156016
676.943	0.0154591
677.021	0.0156976
677.099	0.0156226
677.177	0.0155786
677.255	0.0155328
677.333	0.0156413
677.411	0.0154214
677.489	0.0156300
677.568	0.0154159
677.646	0.0153909
677.724	0.0155313
677.802	0.0154296
677.880	0.0155202
677.958	0.0155157
678.036	0.0154546
678.114	0.0154308
678.193	0.0154179
678.271	0.0154806
678.349	0.0155820
678.427	0.0154698
678.505	0.0155154
678.583	0.0155104
678.661	0.0153774
678.739	0.0154122
678.818	0.0153985
678.896	0.0153112
678.974	0.0154526
679.052	0.0155690
679.130	0.0154836
679.208	0.0154585
679.286	0.0154869
679.364	0.0156009
679.443	0.0155776
679.521	0.0154865
679.599	0.0156988
679.677	0.0154733
679.755	0.0155093
679.833	0.0155836
679.911	0.0154547
679.989	0.0154256
680.068	0.0154153
680.146	0.0155733
680.224	0.0155375
680.302	0.0154533
680.380	0.0154523
680.458	0.0154971
680.536	0.0153936
680.614	0.0155305
680.693	0.0154395
680.771	0.0154232
680.849	0.0154172
680.927	0.0155631
681.005	0.0156376
681.083	0.0154523
681.161	0.0154245
681.239	0.0156161
681.318	0.0154750
681.396	0.0155661
681.474	0.0155376
681.552	0.0154797
681.630	0.0154628
681.708	0.0154910
681.786	0.0155770
681.864	0.0155565
681.943	0.0155851
682.021	0.0154346
682.099	0.0154580
682.177	0.0154717
682.255	0.0154898
682.333	0.0155634
682.411	0.0154964
682.489	0.0156264
682.568	0.0155767
682.646	0.0155659
682.724	0.0156194
682.802	0.0156386
682.880	0.0155219
682.958	0.0155946
683.036	0.0155831
683.114	0.0155976
683.193	0.0156380
683.271	0.0156437
683.349	0.0155968
683.427	0.0157146
683.505	0.0154937
683.583	0.0155910
683.661	0.0155224
683.739	0.0154823
683.818	0.0155584
683.896	0.0157267
683.974	0.0154436
684.052	0.0156358
684.130	0.0156873
684.208	0.0155643
684.286	0.0155640
684.364	0.0155193
684.443	0.0155033
684.521	0.0154947
684.599	0.0155560
684.677	0.0156137
684.755	0.0155406
684.833	0.0156219
684.911	0.0155027
684.989	0.0154504
685.068	0.0154494
685.146	0.0156878
685.224	0.0156247
685.302	0.0156118
685.380	0.0155873
685.458	0.0156266
685.536	0.0155227
685.614	0.0154369
685.693	0.0155244
685.771	0.0154554
685.849	0.0155624
685.927	0.0154653
686.005	0.0155754
686.083	0.0155934
686.161	0.0155158
686.239	0.0155246
686.318	0.0154740
686.396	0.0155286
686.474	0.0154032
686.552	0.0155027
686.630	0.0155894
686.708	0.0157812
686.786	0.0157835
686.864	0.0156589
686.943	0.0157838
687.021	0.0158272
687.099	0.0157062
687.177	0.0157715
687.255	0.0155521
687.333	0.0154885
687.411	0.0156727
687.489	0.0155374
687.568	0.0153355
687.646	0.0151915
687.724	0.0153347
687.802	0.0152422
687.880	0.0150606
687.958	0.0150284
688.036	0.0150056
688.114	0.0149577
688.193	0.0152129
688.271	0.0153877
688.349	0.0155336
688.427	0.0156718
688.505	0.0160058
688.583	0.0161298
688.661	0.0163539
688.739	0.0165593
688.818	0.0165741
688.896	0.0168230
688.974	0.0169216
689.052	0.0170367
689.130	0.0169342
689.208	0.0166964
689.286	0.0165264
689.364	0.0162438
689.443	0.0159879
689.521	0.0158864
689.599	0.0153799
689.677	0.0150084
689.755	0.0147710
689.833	0.0143150
689.911	0.0139898
689.989	0.0139522
690.068	0.0138057
690.146	0.0135448
690.224	0.0136050
690.302	0.0136871
690.380	0.0136940
690.458	0.0138387
690.536	0.0142641
690.614	0.0143359
690.693	0.0146134
690.771	0.0151045
690.849	0.0155271
690.927	0.0158104
691.005	0.0162544
691.083	0.0165229
691.161	0.0168645
691.239	0.0172331
691.318	0.0175278
691.396	0.0180406
691.474	0.0180685
691.552	0.0182356
691.630	0.0183341
691.708	0.0183627
691.786	0.0181013
691.864	0.0180071
691.943	0.0176281
692.021	0.0172065
692.099	0.0167947
692.177	0.0159503
692.255	0.0153958
692.333	0.0146431
692.411	0.0140955
692.489	0.0133527
692.568	0.0127460
692.646	0.0124762
692.724	0.0121329
692.802	0.0119350
692.880	0.0116351
692.958	0.0118136
693.036	0.0120012
693.114	0.0122501
693.193	0.0125748
693.271	0.0131000
693.349	0.0138044
693.427	0.0144379
693.505	0.0150094
693.583	0.0156739
693.661	0.0163141
693.739	0.0169855
693.818	0.0175045
693.896	0.0181673
693.974	0.0182968
694.052	0.0186084
694.130	0.0187972
694.208	0.0188892
694.286	0.0189370
694.364	0.0188730
694.443	0.0185349
694.521	0.0183121
694.599	0.0178603
694.677	0.0173397
694.755	0.0167844
694.833	0.0162937
694.911	0.0158671
694.989	0.0152804
695.068	0.0147707
695.146	0.0145444
695.224	0.0141485
695.302	0.0139456
695.380	0.0136414
695.458	0.0134458
695.536	0.0135775
695.614	0.0135517
695.693	0.0134985
695.771	0.0136899
695.849	0.0138489
695.927	0.0140423
696.005	0.0142825
696.083	0.0145035
696.161	0.0145933
696.239	0.0148418
696.318	0.0150233
696.396	0.0152055
696.474	0.0153592
696.552	0.0156415
696.630	0.0159092
696.708	0.0156913
696.786	0.0157546
696.864	0.0159608
696.943	0.0159635
697.021	0.0159850
697.099	0.0160647
697.177	0.0161211
697.255	0.0162283
697.333	0.0160954
697.411	0.0161517
697.489	0.0162139
697.568	0.0161032
697.646	0.0161778
697.724	0.0163114
697.802	0.0161048
697.880	0.0161571
697.958	0.0161491
698.036	0.0162662
698.114	0.0162048
698.193	0.0161800
698.271	0.0161579
698.349	0.0161200
698.427	0.0160031
698.505	0.0157555
698.583	0.0156467
698.661	0.0156451
698.739	0.0156130
698.818	0.0153867
698.896	0.0154099
698.974	0.0151997
699.052	0.0151088
699.130	0.0151359
699.208	0.0150677
699.286	0.0150874
699.364	0.0151433
699.443	0.0151067
699.521	0.0153648
699.599	0.0154804
699.677	0.0154887
699.755	0.0155533
699.833	0.0156863
699.911	0.0158629
699.989	0.0160598
700.068	0.0159615
700.146	0.0158974
700.224	0.0158856
700.302	0.0159084
700.380	0.0158555
700.458	0.0156396
700.536	0.0156768
700.614	0.0156444
700.693	0.0155060
700.771	0.0153432
700.849	0.0153040
700.927	0.0151031
701.005	0.0150404
701.083	0.0150565
701.161	0.0149418
701.239	0.0148402
701.318	0.0146959
701.396	0.0146165
701.474	0.0146624
701.552	0.0146585
701.630	0.0146836
701.708	0.0146346
701.786	0.0146857
701.864	0.0148171
701.943	0.0148443
702.021	0.0149372
702.099	0.0152705
702.177	0.0156158
702.255	0.0158965
702.333	0.0159513
702.411	0.0161220
702.489	0.0162492
702.568	0.0164291
702.646	0.0165989
702.724	0.0167038
702.802	0.0166332
702.880	0.0166348
702.958	0.0166244
703.036	0.0165750
703.114	0.0165378
703.193	0.0163557
703.271	0.0163753
703.349	0.0164072
703.427	0.0163737
703.505	0.0161533
703.583	0.0159576
703.661	0.0159049
703.739	0.0159554
703.818	0.0157418
703.896	0.0155389
703.974	0.0155147
704.052	0.0152949
704.130	0.0151540
704.208	0.0151888
704.286	0.0152700
704.364	0.0151166
704.443	0.0150517
704.521	0.0152614
704.599	0.0154211
704.677	0.0153288
704.755	0.0152505
704.833	0.0154779
704.911	0.0154848
704.989	0.0154223
705.068	0.0154083
705.146	0.0154613
705.224	0.0154543
705.302	0.0154333
705.380	0.0153471
705.458	0.0154892
705.536	0.0155752
705.614	0.0155559
705.693	0.0155843
705.771	0.0156715
705.849	0.0156237
705.927	0.0155683
706.005	0.0155263
706.083	0.0156186
706.161	0.0155767
706.239	0.0154478
706.318	0.0153763
706.396	0.0154045
706.474	0.0152658
706.552	0.0152811
706.630	0.0152071
706.708	0.0151897
706.786	0.0153070
706.864	0.0153977
706.943	0.0150507
707.021	0.0152578
707.099	0.0154040
707.177	0.0154483
707.255	0.0155618
707.333	0.0155089
707.411	0.0156253
707.489	0.0157520
707.568	0.0155618
707.646	0.0155916
707.724	0.0156696
707.802	0.0155947
707.880	0.0155159
707.958	0.0153036
708.036	0.0153294
708.114	0.0152627
708.193	0.0151566
708.271	0.0148904
708.349	0.0148512
708.427	0.0148755
708.505	0.0150858
708.583	0.0149173
708.661	0.0148294
708.739	0.0150964
708.818	0.0151830
708.896	0.0149791
708.974	0.0152171
709.052	0.0154194
709.130	0.0153898
709.208	0.0155181
709.286	0.0157442
709.364	0.0157390
709.443	0.0158962
709.521	0.0160713
709.599	0.0159712
709.677	0.0161896
709.755	0.0163232
709.833	0.0162436
709.911	0.0161488
709.989	0.0163441
710.068	0.0164748
710.146	0.0165318
710.224	0.0163694
710.302	0.0163587
710.380	0.0162903
710.458	0.0162437
710.536	0.0160938
710.614	0.0157870
710.693	0.0157773
710.771	0.0154590
710.849	0.0151814
710.927	0.0152772
711.005	0.0151804
711.083	0.0151715
711.161	0.0151676
711.239	0.0150833
711.318	0.0152142
711.396	0.0154398
711.474	0.0154418
711.552	0.0155299
711.630	0.0157809
711.708	0.0158530
711.786	0.0159776
711.864	0.0161530
711.943	0.0160930
712.021	0.0160120
712.099	0.0159264
712.177	0.0158630
712.255	0.0158169
712.333	0.0154657
712.411	0.0155083
712.489	0.0154893
712.568	0.0153175
712.646	0.0152136
712.724	0.0151401
712.802	0.0148546
712.880	0.0149787
712.958	0.0148015
713.036	0.0147110
713.114	0.0147732
713.193	0.0147603
713.271	0.0148306
713.349	0.0148581
713.427	0.0150331
713.505	0.0152968
713.583	0.0154606
713.661	0.0156657
713.739	0.0160032
713.818	0.0161927
713.896	0.0162441
713.974	0.0164922
714.052	0.0165566
714.130	0.0165192
714.208	0.0164545
714.286	0.0163197
714.364	0.0161838
714.443	0.0159124
714.521	0.0158430
714.599	0.0155664
714.677	0.0153864
714.755	0.0152664
714.833	0.0151082
714.911	0.0148957
714.989	0.0149592
715.068	0.0148518
715.146	0.0147608
715.224	0.0148177
715.302	0.0148569
715.380	0.0148328
715.458	0.0148774
715.536	0.0150025
715.614	0.0148843
715.693	0.0150343
715.771	0.0150614
715.849	0.0151244
715.927	0.0150662
716.005	0.0151809
716.083	0.0151492
716.161	0.0150131
716.239	0.0150018
716.318	0.0150600
716.396	0.0150112
716.474	0.0150891
716.552	0.0152560
716.630	0.0151678
716.708	0.0151875
716.786	0.0153753
716.864	0.0153983
716.943	0.0155251
717.021	0.0156495
717.099	0.0158228
717.177	0.0157467
717.255	0.0157330
717.333	0.0158680
717.411	0.0158339
717.489	0.0159216
717.568	0.0158617
717.646	0.0157671
717.724	0.0155584
717.802	0.0157058
717.880	0.0155183
717.958	0.0152515
718.036	0.0151627
718.114	0.0151390
718.193	0.0149666
718.271	0.0149214
718.349	0.0149955
718.427	0.0150021
718.505	0.0151688
718.583	0.0152943
718.661	0.0154144
718.739	0.0157841
718.818	0.0160220
718.896	0.0163655
718.974	0.0164759
719.052	0.0166465
719.130	0.0167715
719.208	0.0169402
719.286	0.0170541
719.364	0.0169233
719.443	0.0169352
719.521	0.0165251
719.599	0.0165564
719.677	0.0162142
719.755	0.0160539
719.833	0.0158263
719.911	0.0154485
719.989	0.0152911
720.068	0.0151407
720.146	0.0149850
720.224	0.0147850
720.302	0.0149474
720.380	0.0149386
720.458	0.0148615
720.536	0.0149678
720.614	0.0151154
720.693	0.0151482
720.771	0.0152973
720.849	0.0153321
720.927	0.0155328
721.005	0.0156372
721.083	0.0157053
721.161	0.0158304
721.239	0.0158736
721.318	0.0156593
721.396	0.0158696
721.474	0.0158271
721.552	0.0157140
721.630	0.0156091
721.708	0.0156177
721.786	0.0154339
721.864	0.0153849
721.943	0.0154662
722.021	0.0153900
722.099	0.0155219
722.177	0.0153763
722.255	0.0153160
722.333	0.0152501
722.411	0.0151621
722.489	0.0153119
722.568	0.0150430
722.646	0.0151221
722.724	0.0150359
722.802	0.0148471
722.880	0.0148650
722.958	0.0149520
723.036	0.0148849
723.114	0.0149625
723.193	0.0149589
723.271	0.0150642
723.349	0.0151308
723.427	0.0153279
723.505	0.0153117
723.583	0.0154181
723.661	0.0154921
723.739	0.0156985
723.818	0.0157364
723.896	0.0157339
723.974	0.0159525
724.052	0.0160182
724.130	0.0159884
724.208	0.0160726
724.286	0.0161385
724.364	0.0162829
724.443	0.0161016
724.521	0.0161686
724.599	0.0161341
724.677	0.0160642
724.755	0.0158811
724.833	0.0158422
724.911	0.0158179
724.989	0.0156933
725.068	0.0154556
725.146	0.0154490
725.224	0.0155031
725.302	0.0153786
725.380	0.0153817
725.458	0.0151794
725.536	0.0153470
725.614	0.0152546
725.693	0.0152267
725.771	0.0153148
725.849	0.0151799
725.927	0.0152582
726.005	0.0152895
726.083	0.0151569
726.161	0.0153011
726.239	0.0150243
726.318	0.0151467
726.396	0.0152979
726.474	0.0153632
726.552	0.0153314
726.630	0.0152422
726.708	0.0153664
726.786	0.0154823
726.864	0.0154902
726.943	0.0156580
727.021	0.0156754
727.099	0.0156384
727.177	0.0157104
727.255	0.0156588
727.333	0.0156033
727.411	0.0156593
727.489	0.0156020
727.568	0.0157299
727.646	0.0156845
727.724	0.0154329
727.802	0.0155410
727.880	0.0154540
727.958	0.0154662
728.036	0.0154204
728.114	0.0153931
728.193	0.0152888
728.271	0.0152267
728.349	0.0151927
728.427	0.0151607
728.505	0.0153001
728.583	0.0152537
728.661	0.0152656
728.739	0.0153465
728.818	0.0154053
728.896	0.0155295
728.974	0.0157058
729.052	0.0160377
729.130	0.0161352
729.208	0.0160723
729.286	0.0161840
729.364	0.0162708
729.443	0.0163215
729.521	0.0164140
729.599	0.0165018
729.677	0.0162859
729.755	0.0164075
729.833	0.0164130
729.911	0.0161382
729.989	0.0162309
730.068	0.0159111
730.146	0.0157655
730.224	0.0155904
730.302	0.0157031
730.380	0.0154607
730.458	0.0154250
730.536	0.0153868
730.614	0.0153545
730.693	0.0151539
730.771	0.0153155
730.849	0.0152728
730.927	0.0153776
731.005	0.0154548
731.083	0.0155811
731.161	0.0155099
731.239	0.0155794
731.318	0.0155159
731.396	0.0153105
731.474	0.0154559
731.552	0.0152946
731.630	0.0152055
731.708	0.0151711
731.786	0.0150137
731.864	0.0150813
731.943	0.0149586
732.021	0.0151197
732.099	0.0151213
732.177	0.0152596
732.255	0.0152654
732.333	0.0152900
732.411	0.0155005
732.489	0.0156793
732.568	0.0156363
732.646	0.0156627
732.724	0.0157845
732.802	0.0159122
732.880	0.0158142
732.958	0.0158229
733.036	0.0157565
733.114	0.0156208
733.193	0.0156474
733.271	0.0155202
733.349	0.0153442
733.427	0.0151281
733.505	0.0151305
733.583	0.0150941
733.661	0.0148746
733.739	0.0148073
733.818	0.0150519
733.896	0.0150058
733.974	0.0152222
734.052	0.0152832
734.130	0.0152548
734.208	0.0153489
734.286	0.0156447
734.364	0.0158866
734.443	0.0160220
734.521	0.0161497
734.599	0.0161681
734.677	0.0162472
734.755	0.0162758
734.833	0.0161427
734.911	0.0161053
734.989	0.0160722
735.068	0.0160836
735.146	0.0159321
735.224	0.0157715
735.302	0.0156905
735.380	0.0157265
735.458	0.0157786
735.536	0.0154859
735.614	0.0154298
735.693	0.0156036
735.771	0.0156294
735.849	0.0156073
735.927	0.0154862
736.005	0.0156523
736.083	0.0156846
736.161	0.0155753
736.239	0.0156159
736.318	0.0155532
736.396	0.0156099
736.474	0.0155695
736.552	0.0155811
736.630	0.0156009
736.708	0.0156739
736.786	0.0157236
736.864	0.0157211
736.943	0.0155701
737.021	0.0156036
737.099	0.0155615
737.177	0.0155056
737.255	0.0155247
737.333	0.0154071
737.411	0.0154768
737.489	0.0154900
737.568	0.0154659
737.646	0.0154336
737.724	0.0155102
737.802	0.0155517
737.880	0.0153670
737.958	0.0156078
738.036	0.0154042
738.114	0.0155238
738.193	0.0156943
738.271	0.0156484
738.349	0.0156481
738.427	0.0154919
738.505	0.0154218
738.583	0.0151805
738.661	0.0152158
738.739	0.0152313
738.818	0.0151244
738.896	0.0150172
738.974	0.0149245
739.052	0.0149826
739.130	0.0149413
739.208	0.0149853
739.286	0.0150317
739.364	0.0149497
739.443	0.0152567
739.521	0.0152544
739.599	0.0153457
739.677	0.0154170
739.755	0.0153888
739.833	0.0155151
739.911	0.0156721
739.989	0.0156171
740.068	0.0156370
740.146	0.0157835
740.224	0.0156744
740.302	0.0158105
740.380	0.0157538
740.458	0.0156812
740.536	0.0156345
740.614	0.0157038
740.693	0.0157115
740.771	0.0157030
740.849	0.0157826
740.927	0.0155529
741.005	0.0153808
741.083	0.0154840
741.161	0.0155688
741.239	0.0153387
741.318	0.0154669
741.396	0.0153873
741.474	0.0155135
741.552	0.0153489
741.630	0.0153799
741.708	0.0153654
741.786	0.0154647
741.864	0.0155194
741.943	0.0156178
742.021	0.0156866
742.099	0.0155788
742.177	0.0155894
742.255	0.0157127
742.333	0.0157558
742.411	0.0157018
742.489	0.0158504
742.568	0.0156805
742.646	0.0157906
742.724	0.0156298
742.802	0.0155811
742.880	0.0155984
742.958	0.0155239
743.036	0.0155713
743.114	0.0155482
743.193	0.0156290
743.271	0.0154958
743.349	0.0154803
743.427	0.0156406
743.505	0.0156099
743.583	0.0156740
743.661	0.0157071
743.739	0.0157718
743.818	0.0157200
743.896	0.0155569
743.974	0.0157076
744.052	0.0158622
744.130	0.0157284
744.208	0.0156263
744.286	0.0155508
744.364	0.0153533
744.443	0.0154099
744.521	0.0153757
744.599	0.0153748
744.677	0.0151244
744.755	0.0151907
744.833	0.0150966
744.911	0.0150543
744.989	0.0149655
745.068	0.0149502
745.146	0.0151015
745.224	0.0150250
745.302	0.0152789
745.380	0.0153416
745.458	0.0153378
745.536	0.0152898
745.614	0.0156204
745.693	0.0156588
745.771	0.0156514
745.849	0.0157035
745.927	0.0157910
746.005	0.0159420
746.083	0.0157690
746.161	0.0158806
746.239	0.0158829
746.318	0.0156786
746.396	0.0157392
746.474	0.0155679
746.552	0.0155324
746.630	0.0154354
746.708	0.0153854
746.786	0.0152065
746.864	0.0153337
746.943	0.0152065
747.021	0.0152544
747.099	0.0154294
747.177	0.0152695
747.255	0.0153123
747.333	0.0154257
747.411	0.0154785
747.489	0.0154710
747.568	0.0155247
747.646	0.0154595
747.724	0.0154465
747.802	0.0155877
747.880	0.0155851
747.958	0.0155056
748.036	0.0156004
748.114	0.0157120
748.193	0.0156484
748.271	0.0155392
748.349	0.0156774
748.427	0.0155228
748.505	0.0154990
748.583	0.0156663
748.661	0.0155345
748.739	0.0156139
748.818	0.0154823
748.896	0.0154716
748.974	0.0154943
749.052	0.0155581
749.130	0.0155441
749.208	0.0156330
749.286	0.0156574
749.364	0.0155233
749.443	0.0155994
749.521	0.0157580
749.599	0.0157962
749.677	0.0158100
749.755	0.0157652
749.833	0.0155965
749.911	0.0157302
749.989	0.0156570
750.068	0.0155689
750.146	0.0156590
750.224	0.0155531
750.302	0.0154259
750.380	0.0154875
750.458	0.0155112
750.536	0.0154396
750.614	0.0155650
750.693	0.0154444
750.771	0.0154176
750.849	0.0153275
750.927	0.0155610
751.005	0.0154676
751.083	0.0154450
751.161	0.0153574
751.239	0.0154289
751.318	0.0153944
751.396	0.0152718
751.474	0.0153902
751.552	0.0153813
751.630	0.0154240
751.708	0.0153946
751.786	0.0153793
751.864	0.0153755
751.943	0.0154200
752.021	0.0154887
752.099	0.0153706
752.177	0.0155978
752.255	0.0155077
752.333	0.0155875
752.411	0.0155501
752.489	0.0156955
752.568	0.0155103
752.646	0.0154888
752.724	0.0154389
752.802	0.0154550
752.880	0.0154888
752.958	0.0153718
753.036	0.0155599
753.114	0.0154745
753.193	0.0153510
753.271	0.0155246
753.349	0.0153461
753.427	0.0155294
753.505	0.0156004
753.583	0.0156458
753.661	0.0158099
753.739	0.0157355
753.818	0.0157528
753.896	0.0158822
753.974	0.0158300
754.052	0.0158457
754.130	0.0158373
754.208	0.0158213
754.286	0.0156521
754.364	0.0158801
754.443	0.0156120
754.521	0.0154588
754.599	0.0155875
754.677	0.0153829
754.755	0.0153287
754.833	0.0154845
754.911	0.0153288
754.989	0.0153268
755.068	0.0153991
755.146	0.0152254
755.224	0.0152839
755.302	0.0153926
755.380	0.0154089
755.458	0.0154610
755.536	0.0154523
755.614	0.0154646
755.693	0.0156141
755.771	0.0155036
755.849	0.0155917
755.927	0.0155375
756.005	0.0155090
756.083	0.0154366
756.161	0.0155042
756.239	0.0155283
756.318	0.0154922
756.396	0.0155016
756.474	0.0154603
756.552	0.0154714
756.630	0.0152791
756.708	0.0153715
756.786	0.0152905
756.864	0.0151651
756.943	0.0151961
757.021	0.0151649
757.099	0.0152500
757.177	0.0154128
757.255	0.0154308
757.333	0.0152756
757.411	0.0154310
757.489	0.0155144
757.568	0.0153845
757.646	0.0154606
757.724	0.0155108
757.802	0.0156280
757.880	0.0156178
757.958	0.0157652
758.036	0.0155782
758.114	0.0155792
758.193	0.0156658
758.271	0.0156343
758.349	0.0156425
758.427	0.0157246
758.505	0.0155000
758.583	0.0154390
758.661	0.0154728
758.739	0.0156081
758.818	0.0155767
758.896	0.0155812
758.974	0.0157249
759.052	0.0156407
759.130	0.0156699
759.208	0.0156996
759.286	0.0157977
759.364	0.0157308
759.443	0.0157219
759.521	0.0158338
759.599	0.0158591
759.677	0.0156919
759.755	0.0158097
759.833	0.0157007
759.911	0.0157997
759.989	0.0157564
760.068	0.0157446
760.146	0.0157321
760.224	0.0155583
760.302	0.0155412
760.380	0.0157410
760.458	0.0154908
760.536	0.0155489
760.614	0.0154656
760.693	0.0153753
760.771	0.0154008
760.849	0.0155667
760.927	0.0153592
761.005	0.0154459
761.083	0.0154107
761.161	0.0153413
761.239	0.0154381
761.318	0.0154977
761.396	0.0154926
761.474	0.0154574
761.552	0.0153876
761.630	0.0154203
761.708	0.0155315
761.786	0.0155374
761.864	0.0154253
761.943	0.0154388
762.021	0.0155914
762.099	0.0154456
762.177	0.0153938
762.255	0.0154326
762.333	0.0153688
762.411	0.0153898
762.489	0.0153262
762.568	0.0153754
762.646	0.0155305
762.724	0.0154330
762.802	0.0157007
762.880	0.0154745
762.958	0.0155070
763.036	0.0156534
763.114	0.0154071
763.193	0.0155373
763.271	0.0154979
763.349	0.0154760
763.427	0.0154890
763.505	0.0154121
763.583	0.0155148
763.661	0.0154548
763.739	0.0154752
763.818	0.0154880
763.896	0.0155382
763.974	0.0155140
764.052	0.0155068
764.130	0.0154832
764.208	0.0157085
764.286	0.0155414
764.364	0.0155691
764.443	0.0157024
764.521	0.0156578
764.599	0.0156477
764.677	0.0155991
764.755	0.0158073
764.833	0.0158015
764.911	0.0157226
764.989	0.0157168
765.068	0.0157518
765.146	0.0157406
765.224	0.0155508
765.302	0.0156946
765.380	0.0156274
765.458	0.0156155
765.536	0.0155372
765.614	0.0154845
765.693	0.0155820
765.771	0.0154414
765.849	0.0153017
765.927	0.0153873
766.005	0.0154122
766.083	0.0154497
766.161	0.0153609
766.239	0.0154670
766.318	0.0152991
766.396	0.0152609
766.474	0.0153661
766.552	0.0153521
766.630	0.0151732
766.708	0.0153110
766.786	0.0152285
766.864	0.0152274
766.943	0.0152041
767.021	0.0152808
767.099	0.0153011
767.177	0.0153478
767.255	0.0152650
767.333	0.0153313
767.411	0.0151698
767.489	0.0153451
767.568	0.0153557
767.646	0.0155431
767.724	0.0155510
767.802	0.0155254
767.880	0.0154134
767.958	0.0156314
768.036	0.0156932
768.114	0.0156165
768.193	0.0157244
768.271	0.0156470
768.349	0.0157052
768.427	0.0156863
768.505	0.0156932
768.583	0.0156033
768.661	0.0155967
768.739	0.0155981
768.818	0.0155916
768.896	0.0157668
768.974	0.0155486
769.052	0.0155518
769.130	0.0158418
769.208	0.0156487
769.286	0.0157209
769.364	0.0156793
769.443	0.0156837
769.521	0.0157376
769.599	0.0157063
769.677	0.0159367
769.755	0.0159016
769.833	0.0156908
769.911	0.0158701
769.989	0.0159225
770.068	0.0158479
770.146	0.0158330
770.224	0.0159413
770.302	0.0158170
770.380	0.0158076
770.458	0.0157428
770.536	0.0157665
770.614	0.0157195
770.693	0.0155863
770.771	0.0156357
770.849	0.0155795
770.927	0.0156175
771.005	0.0156515
771.083	0.0155562
771.161	0.0156195
771.239	0.0155965
771.318	0.0154812
771.396	0.0154476
771.474	0.0155286
771.552	0.0154624
771.630	0.0155246
771.708	0.0155788
771.786	0.0154834
771.864	0.0155701
771.943	0.0156616
772.021	0.0156869
772.099	0.0157104
772.177	0.0155923
772.255	0.0156525
772.333	0.0156419
772.411	0.0156959
772.489	0.0156853
772.568	0.0157398
772.646	0.0156580
772.724	0.0156899
772.802	0.0155690
772.880	0.0156846
772.958	0.0158666
773.036	0.0158707
773.114	0.0157097
773.193	0.0157792
773.271	0.0156851
773.349	0.0157306
773.427	0.0156635
773.505	0.0155933
773.583	0.0156513
773.661	0.0157317
773.739	0.0155077
773.818	0.0156036
773.896	0.0154361
773.974	0.0152371
774.052	0.0153537
774.130	0.0152360
774.208	0.0151630
774.286	0.0149587
774.364	0.0151472
774.443	0.0150919
774.521	0.0151579
774.599	0.0152014
774.677	0.0152164
774.755	0.0151312
774.833	0.0151866
774.911	0.0153577
774.989	0.0155459
775.068	0.0154293
775.146	0.0154787
775.224	0.0154619
775.302	0.0156681
775.380	0.0157208
775.458	0.0157173
775.536	0.0157026
775.614	0.0158088
775.693	0.0156705
775.771	0.0157121
775.849	0.0157976
775.927	0.0157624
776.005	0.0155923
776.083	0.0156773
776.161	0.0156015
776.239	0.0154980
776.318	0.0154245
776.396	0.0153442
776.474	0.0154558
776.552	0.0153957
776.630	0.0153310
776.708	0.0154181
776.786	0.0153588
776.864	0.0152705
776.943	0.0154279
777.021	0.0155241
777.099	0.0154687
777.177	0.0156425
777.255	0.0156907
777.333	0.0157468
777.411	0.0156146
777.489	0.0156889
777.568	0.0156774
777.646	0.0157036
777.724	0.0157736
777.802	0.0156791
777.880	0.0157185
777.958	0.0156639
778.036	0.0156367
778.114	0.0156660
778.193	0.0155963
778.271	0.0154704
778.349	0.0154559
778.427	0.0155029
778.505	0.0154417
778.583	0.0154306
778.661	0.0155070
778.739	0.0153922
778.818	0.0155098
778.896	0.0153915
778.974	0.0154852
779.052	0.0155016
779.130	0.0155282
779.208	0.0154279
779.286	0.0154652
779.364	0.0155201
779.443	0.0153848
779.521	0.0152978
779.599	0.0154169
779.677	0.0153141
779.755	0.0153332
779.833	0.0153645
779.911	0.0154759
779.989	0.0152875
780.068	0.0153532
780.146	0.0153971
780.224	0.0153212
780.302	0.0155036
780.380	0.0154190
780.458	0.0154086
780.536	0.0154408
780.614	0.0155178
780.693	0.0154897
780.771	0.0155847
780.849	0.0156552
780.927	0.0158140
781.005	0.0156390
781.083	0.0156322
781.161	0.0156038
781.239	0.0156564
781.318	0.0156648
781.396	0.0155742
781.474	0.0156649
781.552	0.0154684
781.630	0.0155106
781.708	0.0155223
781.786	0.0154037
781.864	0.0154819
781.943	0.0156474
782.021	0.0154340
782.099	0.0155012
782.177	0.0157088
782.255	0.0155139
782.333	0.0155647
782.411	0.0155125
782.489	0.0155085
782.568	0.0155633
782.646	0.0155891
782.724	0.0156470
782.802	0.0156486
782.880	0.0157111
782.958	0.0157836
783.036	0.0156529
783.114	0.0157129
783.193	0.0156334
783.271	0.0157965
783.349	0.0157063
783.427	0.0156117
783.505	0.0154669
783.583	0.0156577
783.661	0.0155701
783.739	0.0154861
783.818	0.0155727
783.896	0.0155150
783.974	0.0155478
784.052	0.0155070
784.130	0.0154721
784.208	0.0154006
784.286	0.0155083
784.364	0.0154323
784.443	0.0154739
784.521	0.0154742
784.599	0.0154580
784.677	0.0155459
784.755	0.0155475
784.833	0.0154615
784.911	0.0156641
784.989	0.0155962
785.068	0.0156979
785.146	0.0157579
785.224	0.0156023
785.302	0.0157450
785.380	0.0157400
785.458	0.0157538
785.536	0.0157706
785.614	0.0157728
785.693	0.0156874
785.771	0.0157034
785.849	0.0156902
785.927	0.0155166
786.005	0.0156029
786.083	0.0156078
786.161	0.0155417
786.239	0.0155682
786.318	0.0154001
786.396	0.0153336
786.474	0.0152789
786.552	0.0152650
786.630	0.0152872
786.708	0.0152332
786.786	0.0151115
786.864	0.0150243
786.943	0.0150027
787.021	0.0150596
787.099	0.0149757
787.177	0.0150296
787.255	0.0150528
787.333	0.0150131
787.411	0.0150758
787.489	0.0152833
787.568	0.0152720
787.646	0.0153703
787.724	0.0155025
787.802	0.0154685
787.880	0.0156895
787.958	0.0157745
788.036	0.0157767
788.114	0.0158387
788.193	0.0159631
788.271	0.0159850
788.349	0.0159484
788.427	0.0159212
788.505	0.0159592
788.583	0.0159325
788.661	0.0158013
788.739	0.0158936
788.818	0.0158839
788.896	0.0156479
788.974	0.0155286
789.052	0.0154823
789.130	0.0153633
789.208	0.0153364
789.286	0.0152106
789.364	0.0152453
789.443	0.0151399
789.521	0.0150053
789.599	0.0149857
789.677	0.0150125
789.755	0.0149606
789.833	0.0150238
789.911	0.0149958
789.989	0.0151157
790.068	0.0152193
790.146	0.0152258
790.224	0.0153265
790.302	0.0155389
790.380	0.0155383
790.458	0.0157539
790.536	0.0157575
790.614	0.0158660
790.693	0.0159546
790.771	0.0160560
790.849	0.0160930
790.927	0.0160500
791.005	0.0161525
791.083	0.0161029
791.161	0.0161065
791.239	0.0160738
791.318	0.0160676
791.396	0.0160268
791.474	0.0159544
791.552	0.0158484
791.630	0.0158356
791.708	0.0158845
791.786	0.0156891
791.864	0.0154910
791.943	0.0154230
792.021	0.0152246
792.099	0.0153317
792.177	0.0152425
792.255	0.0151544
792.333	0.0150028
792.411	0.0149843
792.489	0.0148946
792.568	0.0151274
792.646	0.0150437
792.724	0.0150703
792.802	0.0148634
792.880	0.0150986
792.958	0.0152542
793.036	0.0151485
793.114	0.0153452
793.193	0.0155552
793.271	0.0154010
793.349	0.0154734
793.427	0.0154462
793.505	0.0156152
793.583	0.0155955
793.661	0.0156696
793.739	0.0156676
793.818	0.0157029
793.896	0.0156797
793.974	0.0157140
794.052	0.0156390
794.130	0.0156123
794.208	0.0156840
794.286	0.0157270
794.364	0.0155746
794.443	0.0156275
794.521	0.0156075
794.599	0.0155993
794.677	0.0155067
794.755	0.0155077
794.833	0.0155976
794.911	0.0155260
794.989	0.0154115
795.068	0.0154031
795.146	0.0153338
795.224	0.0154285
795.302	0.0154710
795.380	0.0154327
795.458	0.0154147
795.536	0.0154772
795.614	0.0155431
795.693	0.0154466
795.771	0.0155685
795.849	0.0156394
795.927	0.0155931
796.005	0.0155654
796.083	0.0157230
796.161	0.0155485
796.239	0.0156843
796.318	0.0155866
796.396	0.0156505
796.474	0.0156741
796.552	0.0157170
796.630	0.0156518
796.708	0.0156104
796.786	0.0156570
796.864	0.0156678
796.943	0.0155759
797.021	0.0155869
797.099	0.0155648
797.177	0.0156270
797.255	0.0154899
797.333	0.0154533
797.411	0.0156132
797.489	0.0155286
797.568	0.0154452
797.646	0.0154629
797.724	0.0154465
797.802	0.0154847
797.880	0.0152277
797.958	0.0153857
798.036	0.0154194
798.114	0.0155322
798.193	0.0154497
798.271	0.0154027
798.349	0.0153991
798.427	0.0153907
798.505	0.0154455
798.583	0.0155162
798.661	0.0156200
798.739	0.0155761
798.818	0.0155161
798.896	0.0155290
798.974	0.0155659
799.052	0.0154974
799.130	0.0156994
799.208	0.0157024
799.286	0.0157133
799.364	0.0157407
799.443	0.0155656
799.521	0.0156905
799.599	0.0155368
799.677	0.0155746
799.755	0.0156255
799.833	0.0155574
799.911	0.0155157
799.989	0.0153529
800.068	0.0154585
800.146	0.0153910
800.224	0.0153959
800.302	0.0154841
800.380	0.0153589
800.458	0.0153444
800.536	0.0153571
800.614	0.0152110
800.693	0.0152744
800.771	0.0151963
800.849	0.0152711
800.927	0.0155354
801.005	0.0155028
801.083	0.0154404
801.161	0.0154359
801.239	0.0154919
801.318	0.0155916
801.396	0.0155711
801.474	0.0154523
801.552	0.0155659
801.630	0.0156112
801.708	0.0155565
801.786	0.0155478
801.864	0.0157545
801.943	0.0157360
802.021	0.0155194
802.099	0.0156049
802.177	0.0156440
802.255	0.0155762
802.333	0.0155695
802.411	0.0155243
802.489	0.0155196
802.568	0.0155039
802.646	0.0154910
802.724	0.0155138
802.802	0.0152754
802.880	0.0154221
802.958	0.0154893
803.036	0.0155434
803.114	0.0154735
803.193	0.0154771
803.271	0.0154783
803.349	0.0154366
803.427	0.0155741
803.505	0.0155509
803.583	0.0156113
803.661	0.0157078
803.739	0.0157144
803.818	0.0158041
803.896	0.0158596
803.974	0.0157861
804.052	0.0157307
804.130	0.0156532
804.208	0.0158009
804.286	0.0156574
804.364	0.0156875
804.443	0.0156576
804.521	0.0154448
804.599	0.0154549
804.677	0.0155267
804.755	0.0154128
804.833	0.0153963
804.911	0.0153096
804.989	0.0153692
805.068	0.0152040
805.146	0.0153085
805.224	0.0154474
805.302	0.0153825
805.380	0.0152837
805.458	0.0153676
805.536	0.0153050
805.614	0.0153322
805.693	0.0152816
805.771	0.0154694
805.849	0.0154321
805.927	0.0154197
806.005	0.0152907
806.083	0.0153784
806.161	0.0155149
806.239	0.0153589
806.318	0.0153903
806.396	0.0153648
806.474	0.0155422
806.552	0.0154944
806.630	0.0155599
806.708	0.0156001
806.786	0.0156189
806.864	0.0154913
806.943	0.0154935
807.021	0.0155748
807.099	0.0154745
807.177	0.0155946
807.255	0.0156686
807.333	0.0156551
807.411	0.0156327
807.489	0.0155573
807.568	0.0155674
807.646	0.0155805
807.724	0.0155929
807.802	0.0155650
807.880	0.0154896
807.958	0.0154298
808.036	0.0153250
808.114	0.0155112
808.193	0.0153691
808.271	0.0153708
808.349	0.0154665
808.427	0.0153010
808.505	0.0153891
808.583	0.0153182
808.661	0.0152038
808.739	0.0151558
808.818	0.0152785
808.896	0.0153287
808.974	0.0153909
809.052	0.0154268
809.130	0.0154249
809.208	0.0154468
809.286	0.0153635
809.364	0.0154449
809.443	0.0155260
809.521	0.0154398
809.599	0.0155713
809.677	0.0156068
809.755	0.0156168
809.833	0.0155753
809.911	0.0155483
809.989	0.0156049
810.068	0.0155409
810.146	0.0155676
810.224	0.0155846
810.302	0.0156035
810.380	0.0154185
810.458	0.0154967
810.536	0.0153802
810.614	0.0155289
810.693	0.0153466
810.771	0.0154847
810.849	0.0154392
810.927	0.0154768
811.005	0.0154694
811.083	0.0153594
811.161	0.0154853
811.239	0.0155379
811.318	0.0155025
811.396	0.0155659
811.474	0.0155309
811.552	0.0157504
811.630	0.0155235
811.708	0.0156223
811.786	0.0156816
811.864	0.0157413
811.943	0.0156243
812.021	0.0156790
812.099	0.0157516
812.177	0.0157153
812.255	0.0156908
812.333	0.0155782
812.411	0.0154442
812.489	0.0155019
812.568	0.0153768
812.646	0.0153672
812.724	0.0153629
812.802	0.0153338
812.880	0.0152091
812.958	0.0152917
813.036	0.0152037
813.114	0.0152708
813.193	0.0153811
813.271	0.0151418
813.349	0.0152377
813.427	0.0153167
813.505	0.0152475
813.583	0.0152759
813.661	0.0151903
813.739	0.0153673
813.818	0.0154075
813.896	0.0153618
813.974	0.0154131
814.052	0.0152872
814.130	0.0153845
814.208	0.0153954
814.286	0.0153751
814.364	0.0153850
814.443	0.0155470
814.521	0.0153565
814.599	0.0153302
814.677	0.0153553
814.755	0.0154073
814.833	0.0153204
814.911	0.0153317
814.989	0.0153902
815.068	0.0154481
815.146	0.0154529
815.224	0.0153955
815.302	0.0154843
815.380	0.0154861
815.458	0.0155834
815.536	0.0155396
815.614	0.0153872
815.693	0.0155539
815.771	0.0157145
815.849	0.0157124
815.927	0.0156725
816.005	0.0156727
816.083	0.0155527
816.161	0.0156618
816.239	0.0155442
816.318	0.0155466
816.396	0.0154213
816.474	0.0155225
816.552	0.0155151
816.630	0.0154145
816.708	0.0154551
816.786	0.0154699
816.864	0.0156271
816.943	0.0155316
817.021	0.0155099
817.099	0.0155723
817.177	0.0155428
817.255	0.0153400
817.333	0.0154716
817.411	0.0156394
817.489	0.0155850
817.568	0.0154647
817.646	0.0155847
817.724	0.0154958
817.802	0.0155634
817.880	0.0155582
817.958	0.0155173
818.036	0.0155928
818.114	0.0156434
818.193	0.0156729
818.271	0.0155106
818.349	0.0154787
818.427	0.0155589
818.505	0.0155063
818.583	0.0154628
818.661	0.0154513
818.739	0.0155995
818.818	0.0154929
818.896	0.0152737
818.974	0.0154228
819.052	0.0154377
819.130	0.0153582
819.208	0.0153735
819.286	0.0153044
819.364	0.0153195
819.443	0.0154437
819.521	0.0153614
819.599	0.0152158
819.677	0.0151935
819.755	0.0151759
819.833	0.0152088
819.911	0.0152545
819.989	0.0152932
820.068	0.0152407
820.146	0.0153656
820.224	0.0152869
820.302	0.0153493
820.380	0.0153342
820.458	0.0154483
820.536	0.0153866
820.614	0.0153551
820.693	0.0154572
820.771	0.0155463
820.849	0.0155801
820.927	0.0156242
821.005	0.0155504
821.083	0.0157324
821.161	0.0156239
821.239	0.0156931
821.318	0.0157495
821.396	0.0158247
821.474	0.0158485
821.552	0.0158950
821.630	0.0159203
821.708	0.0156732
821.786	0.0157849
821.864	0.0159190
821.943	0.0158527
822.021	0.0158708
822.099	0.0155772
822.177	0.0156168
822.255	0.0157813
822.333	0.0156534
822.411	0.0156789
822.489	0.0155562
822.568	0.0155209
822.646	0.0155537
822.724	0.0156542
822.802	0.0155646
822.880	0.0154334
822.958	0.0155688
823.036	0.0154810
823.114	0.0155908
823.193	0.0155960
823.271	0.0156192
823.349	0.0156097
823.427	0.0156590
823.505	0.0156187
823.583	0.0154460
823.661	0.0155673
823.739	0.0154696
823.818	0.0155505
823.896	0.0156023
823.974	0.0153745
824.052	0.0154129
824.130	0.0155336
824.208	0.0153172
824.286	0.0154272
824.364	0.0154607
824.443	0.0152981
824.521	0.0153732
824.599	0.0153193
824.677	0.0151857
824.755	0.0153117
824.833	0.0154176
824.911	0.0152303
824.989	0.0152692
825.068	0.0153563
825.146	0.0152709
825.224	0.0153130
825.302	0.0152749
825.380	0.0152850
825.458	0.0152393
825.536	0.0153589
825.614	0.0155038
825.693	0.0154733
825.771	0.0154363
825.849	0.0154655
825.927	0.0155517
826.005	0.0155868
826.083	0.0155693
826.161	0.0155416
826.239	0.0155473
826.318	0.0155737
826.396	0.0156023
826.474	0.0156316
826.552	0.0157550
826.630	0.0156824
826.708	0.0156350
826.786	0.0156967
826.864	0.0156344
826.943	0.0157880
827.021	0.0156687
827.099	0.0157757
827.177	0.0157069
827.255	0.0156247
827.333	0.0156417
827.411	0.0158315
827.489	0.0158428
827.568	0.0156482
827.646	0.0157172
827.724	0.0156842
827.802	0.0155943
827.880	0.0155579
827.958	0.0156562
828.036	0.0156359
828.114	0.0155537
828.193	0.0154627
828.271	0.0155511
828.349	0.0156750
828.427	0.0155811
828.505	0.0154734
828.583	0.0155389
828.661	0.0156862
828.739	0.0155186
828.818	0.0155317
828.896	0.0154685
828.974	0.0156975
829.052	0.0153844
829.130	0.0156676
829.208	0.0155788
829.286	0.0154935
829.364	0.0155025
829.443	0.0155293
829.521	0.0154462
829.599	0.0156523
829.677	0.0155789
829.755	0.0155687
829.833	0.0155615
829.911	0.0154150
829.989	0.0154862
830.068	0.0154669
830.146	0.0153425
830.224	0.0155548
830.302	0.0153946
830.380	0.0153616
830.458	0.0152663
830.536	0.0154823
830.614	0.0154070
830.693	0.0153264
830.771	0.0153014
830.849	0.0152651
830.927	0.0153098
831.005	0.0154224
831.083	0.0153666
831.161	0.0152187
831.239	0.0152598
831.318	0.0152587
831.396	0.0153470
831.474	0.0154299
831.552	0.0153288
831.630	0.0153886
831.708	0.0154603
831.786	0.0153207
831.864	0.0155812
831.943	0.0155377
832.021	0.0154447
832.099	0.0153989
832.177	0.0155836
832.255	0.0155661
832.333	0.0155380
832.411	0.0155904
832.489	0.0155907
832.568	0.0155643
832.646	0.0157874
832.724	0.0157314
832.802	0.0156570
832.880	0.0155717
832.958	0.0155536
833.036	0.0156361
833.114	0.0157018
833.193	0.0157339
833.271	0.0157690
833.349	0.0156129
833.427	0.0157458
833.505	0.0157909
833.583	0.0158318
833.661	0.0157824
833.739	0.0157588
833.818	0.0156753
833.896	0.0155972
833.974	0.0157275
834.052	0.0159264
834.130	0.0158467
834.208	0.0157237
834.286	0.0158465
834.364	0.0158684
834.443	0.0157684
834.521	0.0158000
834.599	0.0159645
834.677	0.0156641
834.755	0.0157151
834.833	0.0157063
834.911	0.0156225
834.989	0.0157700
835.068	0.0156161
835.146	0.0156669
835.224	0.0156487
835.302	0.0155347
835.380	0.0154205
835.458	0.0154255
835.536	0.0154923
835.614	0.0155424
835.693	0.0154983
835.771	0.0154134
835.849	0.0154134
835.927	0.0154726
836.005	0.0154513
836.083	0.0153920
836.161	0.0153376
836.239	0.0153152
836.318	0.0153452
836.396	0.0152732
836.474	0.0152562
836.552	0.0153908
836.630	0.0153646
836.708	0.0153838
836.786	0.0153042
836.864	0.0152462
836.943	0.0152321
837.021	0.0152363
837.099	0.0153676
837.177	0.0152670
837.255	0.0151830
837.333	0.0152827
837.411	0.0152685
837.489	0.0153476
837.568	0.0151408
837.646	0.0150996
837.724	0.0152119
837.802	0.0152246
837.880	0.0153555
837.958	0.0154050
838.036	0.0154172
838.114	0.0154147
838.193	0.0153884
838.271	0.0154313
838.349	0.0155523
838.427	0.0155190
838.505	0.0156732
838.583	0.0155218
838.661	0.0155661
838.739	0.0156926
838.818	0.0157207
838.896	0.0155898
838.974	0.0155082
839.052	0.0156166
839.130	0.0156393
839.208	0.0156721
839.286	0.0156729
839.364	0.0157021
839.443	0.0154916
839.521	0.0155927
839.599	0.0156408
839.677	0.0156606
839.755	0.0158447
839.833	0.0156438
839.911	0.0157474
839.989	0.0157775
840.068	0.0157388
840.146	0.0158810
840.224	0.0158381
840.302	0.0156565
840.380	0.0157366
840.458	0.0157098
840.536	0.0156420
840.614	0.0155218
840.693	0.0155809
840.771	0.0156293
840.849	0.0156374
840.927	0.0155148
841.005	0.0155379
841.083	0.0156184
841.161	0.0154190
841.239	0.0153585
841.318	0.0155054
841.396	0.0154417
841.474	0.0153238
841.552	0.0153596
841.630	0.0154555
841.708	0.0153587
841.786	0.0154861
841.864	0.0154269
841.943	0.0153201
842.021	0.0154202
842.099	0.0155518
842.177	0.0154420
842.255	0.0156477
842.333	0.0154888
842.411	0.0154959
842.489	0.0155614
842.568	0.0154480
842.646	0.0155392
842.724	0.0154488
842.802	0.0153717
842.880	0.0155997
842.958	0.0155500
843.036	0.0153822
843.114	0.0154642
843.193	0.0155306
843.271	0.0154988
843.349	0.0155231
843.427	0.0153500
843.505	0.0154807
843.583	0.0154009
843.661	0.0156231
843.739	0.0154939
843.818	0.0153937
843.896	0.0155190
843.974	0.0155734
844.052	0.0155636
844.130	0.0155019
844.208	0.0154971
844.286	0.0156160
844.364	0.0155730
844.443	0.0156763
844.521	0.0156199
844.599	0.0156085
844.677	0.0155567
844.755	0.0155820
844.833	0.0156046
844.911	0.0155137
844.989	0.0154938
845.068	0.0156277
845.146	0.0154865
845.224	0.0155415
845.302	0.0153829
845.380	0.0155623
845.458	0.0156134
845.536	0.0154572
845.614	0.0153546
845.693	0.0153381
845.771	0.0155042
845.849	0.0155463
845.927	0.0154626
846.005	0.0155222
846.083	0.0155531
846.161	0.0155049
846.239	0.0155143
846.318	0.0156983
846.396	0.0157127
846.474	0.0155833
846.552	0.0156943
846.630	0.0156104
846.708	0.0157567
846.786	0.0157112
846.864	0.0156783
846.943	0.0156931
847.021	0.0156871
847.099	0.0157513
847.177	0.0157229
847.255	0.0157455
847.333	0.0157227
847.411	0.0155797
847.489	0.0156558
847.568	0.0155952
847.646	0.0155428
847.724	0.0155135
847.802	0.0154514
847.880	0.0154335
847.958	0.0156576
848.036	0.0154701
848.114	0.0155099
848.193	0.0155161
848.271	0.0154459
848.349	0.0154440
848.427	0.0157190
848.505	0.0155971
848.583	0.0155138
848.661	0.0156293
848.739	0.0156735
848.818	0.0155810
848.896	0.0155910
848.974	0.0155978
849.052	0.0156078
849.130	0.0155973
849.208	0.0156947
849.286	0.0155966
849.364	0.0155888
849.443	0.0155535
849.521	0.0155527
849.599	0.0156242
849.677	0.0156408
849.755	0.0155248
849.833	0.0155130
849.911	0.0155597
849.989	0.0154748
850.068	0.0156770
850.146	0.0155629
850.224	0.0154390
850.302	0.0156207
850.380	0.0154147
850.458	0.0156054
850.536	0.0154192
850.614	0.0156187
850.693	0.0156311
850.771	0.0155064
850.849	0.0155366
850.927	0.0154266
851.005	0.0155753
851.083	0.0155199
851.161	0.0154403
851.239	0.0154359
851.318	0.0153983
851.396	0.0156242
851.474	0.0154271
851.552	0.0153486
851.630	0.0154804
851.708	0.0155882
851.786	0.0154046
851.864	0.0153870
851.943	0.0153818
852.021	0.0154325
852.099	0.0154373
852.177	0.0154273
852.255	0.0154492
852.333	0.0155050
852.411	0.0156036
852.489	0.0154389
852.568	0.0153844
852.646	0.0155358
852.724	0.0154175
852.802	0.0155708
852.880	0.0156268
852.958	0.0155843
853.036	0.0156079
853.114	0.0156374
853.193	0.0156476
853.271	0.0156261
853.349	0.0156176
853.427	0.0155617
853.505	0.0155608
853.583	0.0156657
853.661	0.0156786
853.739	0.0156096
853.818	0.0156555
853.896	0.0156396
853.974	0.0155784
854.052	0.0156989
854.130	0.0157025
854.208	0.0156133
854.286	0.0156216
854.364	0.0156447
854.443	0.0156828
854.521	0.0157014
854.599	0.0158097
854.677	0.0156920
854.755	0.0159513
854.833	0.0157638
854.911	0.0156160
854.989	0.0157340
855.068	0.0157299
855.146	0.0157217
855.224	0.0158898
855.302	0.0156627
855.380	0.0157666
855.458	0.0157111
855.536	0.0156821
855.614	0.0157619
855.693	0.0156286
855.771	0.0155933
855.849	0.0155200
855.927	0.0155742
856.005	0.0154297
856.083	0.0155637
856.161	0.0156229
856.239	0.0155602
856.318	0.0154698
856.396	0.0155619
856.474	0.0154774
856.552	0.0154568
856.630	0.0155296
856.708	0.0153860
856.786	0.0154089
856.864	0.0155515
856.943	0.0155133
857.021	0.0153888
857.099	0.0153957
857.177	0.0155082
857.255	0.0157097
857.333	0.0157230
857.411	0.0154092
857.489	0.0155083
857.568	0.0155076
857.646	0.0154824
857.724	0.0155028
857.802	0.0154945
857.880	0.0154716
857.958	0.0153767
858.036	0.0155195
858.114	0.0153931
858.193	0.0154712
858.271	0.0153875
858.349	0.0153644
858.427	0.0154347
858.505	0.0152982
858.583	0.0153238
858.661	0.0154025
858.739	0.0155355
858.818	0.0155356
858.896	0.0154386
858.974	0.0154802
859.052	0.0154843
859.130	0.0156898
859.208	0.0157190
859.286	0.0156857
859.364	0.0156307
859.443	0.0155698
859.521	0.0157318
859.599	0.0156469
859.677	0.0157736
859.755	0.0157728
859.833	0.0156832
859.911	0.0156376
859.989	0.0157605
860.068	0.0158871
860.146	0.0157628
860.224	0.0156451
860.302	0.0157387
860.380	0.0156540
860.458	0.0156975
860.536	0.0157392
860.614	0.0156786
860.693	0.0155038
860.771	0.0155479
860.849	0.0156184
860.927	0.0155671
861.005	0.0155687
861.083	0.0154921
861.161	0.0155399
861.239	0.0155173
861.318	0.0155696
861.396	0.0155693
861.474	0.0154977
861.552	0.0153919
861.630	0.0155276
861.708	0.0154962
861.786	0.0155184
861.864	0.0154227
861.943	0.0154525
862.021	0.0155696
862.099	0.0156387
862.177	0.0156327
862.255	0.0155159
862.333	0.0155137
862.411	0.0155976
862.489	0.0156064
862.568	0.0155285
862.646	0.0154745
862.724	0.0155664
862.802	0.0153461
862.880	0.0154125
862.958	0.0153396
863.036	0.0153552
863.114	0.0155229
863.193	0.0153833
863.271	0.0153505
863.349	0.0154525
863.427	0.0153570
863.505	0.0153055
863.583	0.0155625
863.661	0.0155076
863.739	0.0154198
863.818	0.0152547
863.896	0.0153770
863.974	0.0154695
864.052	0.0154454
864.130	0.0154947
864.208	0.0154388
864.286	0.0153308
864.364	0.0153894
864.443	0.0155354
864.521	0.0155048
864.599	0.0154044
864.677	0.0154489
864.755	0.0154691
864.833	0.0155186
864.911	0.0155437
864.989	0.0155043
865.068	0.0155908
865.146	0.0155473
865.224	0.0156828
865.302	0.0155948
865.380	0.0156560
865.458	0.0156618
865.536	0.0155094
865.614	0.0156404
865.693	0.0156840
865.771	0.0156239
865.849	0.0155363
865.927	0.0155893
866.005	0.0156651
866.083	0.0156512
866.161	0.0157109
866.239	0.0155920
866.318	0.0156766
866.396	0.0156696
866.474	0.0157343
866.552	0.0157635
866.630	0.0157650
866.708	0.0156621
866.786	0.0156710
866.864	0.0157182
866.943	0.0158139
867.021	0.0156862
867.099	0.0157211
867.177	0.0155729
867.255	0.0155960
867.333	0.0157332
867.411	0.0156631
867.489	0.0155914
867.568	0.0155051
867.646	0.0155865
867.724	0.0154957
867.802	0.0154362
867.880	0.0154639
867.958	0.0155302
868.036	0.0154139
868.114	0.0155471
868.193	0.0154311
868.271	0.0154750
868.349	0.0153731
868.427	0.0152911
868.505	0.0155048
868.583	0.0155264
868.661	0.0155085
868.739	0.0153513
868.818	0.0152138
868.896	0.0155466
868.974	0.0154303
869.052	0.0153777
869.130	0.0153902
869.208	0.0154395
869.286	0.0154724
869.364	0.0154101
869.443	0.0155894
869.521	0.0154617
869.599	0.0153464
869.677	0.0154202
869.755	0.0155912
869.833	0.0155729
869.911	0.0153918
869.989	0.0154268
870.068	0.0155389
870.146	0.0155515
870.224	0.0156232
870.302	0.0155428
870.380	0.0154625
870.458	0.0156424
870.536	0.0156040
870.614	0.0155337
870.693	0.0155408
870.771	0.0156076
870.849	0.0155648
870.927	0.0155783
871.005	0.0156831
871.083	0.0154934
871.161	0.0156170
871.239	0.0155710
871.318	0.0155585
871.396	0.0155253
871.474	0.0156013
871.552	0.0155450
871.630	0.0155399
871.708	0.0153819
871.786	0.0155600
871.864	0.0154422
871.943	0.0156625
872.021	0.0154669
872.099	0.0155341
872.177	0.0154394
872.255	0.0156213
872.333	0.0156522
872.411	0.0155209
872.489	0.0156348
872.568	0.0154372
872.646	0.0156422
872.724	0.0156290
872.802	0.0156748
872.880	0.0156694
872.958	0.0156221
873.036	0.0156111
873.114	0.0155335
873.193	0.0155414
873.271	0.0154723
873.349	0.0156406
873.427	0.0155823
873.505	0.0156931
873.583	0.0155283
873.661	0.0153978
873.739	0.0155003
873.818	0.0153807
873.896	0.0155499
873.974	0.0154671
874.052	0.0154546
874.130	0.0154379
874.208	0.0153666
874.286	0.0153943
874.364	0.0154468
874.443	0.0155451
874.521	0.0154519
874.599	0.0152991
874.677	0.0153645
874.755	0.0154978
874.833	0.0154687
874.911	0.0153689
874.989	0.0153759
875.068	0.0153555
875.146	0.0155453
875.224	0.0153107
875.302	0.0153690
875.380	0.0153951
875.458	0.0153547
875.536	0.0155424
875.614	0.0155484
875.693	0.0154165
875.771	0.0154292
875.849	0.0154554
875.927	0.0154383
876.005	0.0154295
876.083	0.0154025
876.161	0.0153209
876.239	0.0154240
876.318	0.0154062
876.396	0.0154790
876.474	0.0154298
876.552	0.0155492
876.630	0.0155188
876.708	0.0155006
876.786	0.0155524
876.864	0.0154987
876.943	0.0154739
877.021	0.0156263
877.099	0.0155723
877.177	0.0155620
877.255	0.0154793
877.333	0.0155708
877.411	0.0156563
877.489	0.0156140
877.568	0.0156624
877.646	0.0155557
877.724	0.0155899
877.802	0.0156787
877.880	0.0156212
877.958	0.0156477
878.036	0.0155843
878.114	0.0155633
878.193	0.0155941
878.271	0.0155415
878.349	0.0156016
878.427	0.0155882
878.505	0.0155842
878.583	0.0155907
878.661	0.0155293
878.739	0.0156020
878.818	0.0156834
878.896	0.0156111
878.974	0.0154757
879.052	0.0156025
879.130	0.0155134
879.208	0.0155173
879.286	0.0153687
879.364	0.0155885
879.443	0.0155249
879.521	0.0154005
879.599	0.0153846
879.677	0.0153639
879.755	0.0154411
879.833	0.0154430
879.911	0.0154774
879.989	0.0153136
880.068	0.0154123
880.146	0.0156659
880.224	0.0156738
880.302	0.0156075
880.380	0.0154985
880.458	0.0156153
880.536	0.0156296
880.614	0.0156822
880.693	0.0156239
880.771	0.0156821
880.849	0.0156920
880.927	0.0155527
881.005	0.0155545
881.083	0.0155626
881.161	0.0154485
881.239	0.0153079
881.318	0.0153493
881.396	0.0152429
881.474	0.0153304
881.552	0.0152806
881.630	0.0151577
881.708	0.0152759
881.786	0.0154015
881.864	0.0152858
881.943	0.0153397
882.021	0.0154351
882.099	0.0153704
882.177	0.0155420
882.255	0.0153873
882.333	0.0156071
882.411	0.0155755
882.489	0.0156698
882.568	0.0157575
882.646	0.0157480
882.724	0.0157024
882.802	0.0158245
882.880	0.0156397
882.958	0.0157777
883.036	0.0157032
883.114	0.0156203
883.193	0.0155915
883.271	0.0155894
883.349	0.0155167
883.427	0.0155461
883.505	0.0155078
883.583	0.0153865
883.661	0.0153902
883.739	0.0153187
883.818	0.0151946
883.896	0.0152445
883.974	0.0151157
884.052	0.0151513
884.130	0.0150350
884.208	0.0152339
884.286	0.0151981
884.364	0.0152036
884.443	0.0150239
884.521	0.0151073
884.599	0.0153249
884.677	0.0154736
884.755	0.0154259
884.833	0.0155239
884.911	0.0157191
884.989	0.0157529
885.068	0.0157436
885.146	0.0158379
885.224	0.0158884
885.302	0.0159837
885.380	0.0159042
885.458	0.0159177
885.536	0.0159161
885.614	0.0160244
885.693	0.0161098
885.771	0.0160081
885.849	0.0159741
885.927	0.0159171
886.005	0.0157874
886.083	0.0157216
886.161	0.0156890
886.239	0.0156446
886.318	0.0155048
886.396	0.0155399
886.474	0.0152462
886.552	0.0152794
886.630	0.0151762
886.708	0.0152891
886.786	0.0150944
886.864	0.0148779
886.943	0.0151949
887.021	0.0152531
887.099	0.0151546
887.177	0.0152145
887.255	0.0152448
887.333	0.0152391
887.411	0.0152191
887.489	0.0152660
887.568	0.0153056
887.646	0.0155595
887.724	0.0154256
887.802	0.0154338
887.880	0.0155790
887.958	0.0155658
888.036	0.0155941
888.114	0.0155328
888.193	0.0155320
888.271	0.0156183
888.349	0.0156616
888.427	0.0155164
888.505	0.0155501
888.583	0.0155979
888.661	0.0155798
888.739	0.0155714
888.818	0.0157238
888.896	0.0155732
888.974	0.0154179
889.052	0.0156378
889.130	0.0156568
889.208	0.0154601
889.286	0.0153821
889.364	0.0155418
889.443	0.0154987
889.521	0.0154086
889.599	0.0155495
889.677	0.0154723
889.755	0.0153624
889.833	0.0155077
889.911	0.0153989
889.989	0.0155073
890.068	0.0154549
890.146	0.0155386
890.224	0.0154553
890.302	0.0153648
890.380	0.0154530
890.458	0.0154266
890.536	0.0154323
890.614	0.0154366
890.693	0.0154540
890.771	0.0154720
890.849	0.0154232
890.927	0.0155001
891.005	0.0154566
891.083	0.0154333
891.161	0.0154678
891.239	0.0154697
891.318	0.0153624
891.396	0.0153815
891.474	0.0154604
891.552	0.0155903
891.630	0.0154943
891.708	0.0155433
891.786	0.0155443
891.864	0.0154784
891.943	0.0155247
892.021	0.0155304
892.099	0.0155302
892.177	0.0156267
892.255	0.0156682
892.333	0.0155385
892.411	0.0154671
892.489	0.0156797
892.568	0.0156752
892.646	0.0156816
892.724	0.0155876
892.802	0.0156100
892.880	0.0156587
892.958	0.0154270
893.036	0.0155801
893.114	0.0154548
893.193	0.0153802
893.271	0.0154482
893.349	0.0153622
893.427	0.0153909
893.505	0.0153111
893.583	0.0151829
893.661	0.0154329
893.739	0.0153392
893.818	0.0154102
893.896	0.0153326
893.974	0.0153864
894.052	0.0152599
894.130	0.0153309
894.208	0.0153903
894.286	0.0152593
894.364	0.0154994
894.443	0.0153280
894.521	0.0153654
894.599	0.0152888
894.677	0.0153265
894.755	0.0154419
894.833	0.0153785
894.911	0.0153618
894.989	0.0153123
895.068	0.0152888
895.146	0.0153504
895.224	0.0154596
895.302	0.0154658
895.380	0.0154585
895.458	0.0155041
895.536	0.0154954
895.614	0.0154260
895.693	0.0153905
895.771	0.0155396
895.849	0.0156435
895.927	0.0156767
896.005	0.0155254
896.083	0.0155076
896.161	0.0156058
896.239	0.0155717
896.318	0.0156548
896.396	0.0156678
896.474	0.0156056
896.552	0.0155968
896.630	0.0155791
896.708	0.0155135
896.786	0.0154955
896.864	0.0155302
896.943	0.0155156
897.021	0.0155043
897.099	0.0155113
897.177	0.0154591
897.255	0.0153874
897.333	0.0154492
897.411	0.0155093
897.489	0.0155689
897.568	0.0156538
897.646	0.0156179
897.724	0.0154760
897.802	0.0155357
897.880	0.0155061
897.958	0.0154794
898.036	0.0155716
898.114	0.0155060
898.193	0.0155125
898.271	0.0155251
898.349	0.0155438
898.427	0.0155566
898.505	0.0155633
898.583	0.0155993
898.661	0.0155898
898.739	0.0157104
898.818	0.0157215
898.896	0.0155546
898.974	0.0156244
899.052	0.0156030
899.130	0.0155788
899.208	0.0155923
899.286	0.0155651
899.364	0.0154760
899.443	0.0154281
899.521	0.0154911
899.599	0.0155572
899.677	0.0154236
899.755	0.0153332
899.833	0.0154572
899.911	0.0153273
899.989	0.0153878
900.068	0.0153296
900.146	0.0152749
900.224	0.0152442
900.302	0.0152379
900.380	0.0152699
900.458	0.0153059
900.536	0.0152570
900.614	0.0154340
900.693	0.0153293
900.771	0.0153883
900.849	0.0155677
900.927	0.0155383
901.005	0.0154699
901.083	0.0155083
901.161	0.0156277
901.239	0.0155859
901.318	0.0155252
901.396	0.0156887
901.474	0.0157221
901.552	0.0155637
901.630	0.0156190
901.708	0.0155237
901.786	0.0155866
901.864	0.0156656
901.943	0.0157169
902.021	0.0156169
902.099	0.0156586
902.177	0.0155035
902.255	0.0155131
902.333	0.0156946
902.411	0.0155255
902.489	0.0156343
902.568	0.0155275
902.646	0.0154402
902.724	0.0153611
902.802	0.0154813
902.880	0.0154117
902.958	0.0153958
903.036	0.0154385
903.114	0.0154758
903.193	0.0154066
903.271	0.0153829
903.349	0.0154691
903.427	0.0153655
903.505	0.0154557
903.583	0.0154256
903.661	0.0154768
903.739	0.0153976
903.818	0.0154249
903.896	0.0153974
903.974	0.0154363
904.052	0.0152120
904.130	0.0153461
904.208	0.0153958
904.286	0.0152879
904.364	0.0153291
904.443	0.0154461
904.521	0.0153823
904.599	0.0154911
904.677	0.0155109
904.755	0.0154324
904.833	0.0155058
904.911	0.0156228
904.989	0.0155731
905.068	0.0154951
905.146	0.0157230
905.224	0.0155992
905.302	0.0156231
905.380	0.0158076
905.458	0.0158041
905.536	0.0156644
905.614	0.0156516
905.693	0.0158585
905.771	0.0158934
905.849	0.0156785
905.927	0.0157033
906.005	0.0157267
906.083	0.0155176
906.161	0.0155110
906.239	0.0155316
906.318	0.0156282
906.396	0.0154187
906.474	0.0154705
906.552	0.0154324
906.630	0.0152814
906.708	0.0152731
906.786	0.0153038
906.864	0.0152322
906.943	0.0153606
907.021	0.0152795
907.099	0.0153648
907.177	0.0154823
907.255	0.0154363
907.333	0.0153133
907.411	0.0153832
907.489	0.0154066
907.568	0.0154476
907.646	0.0154980
907.724	0.0154597
907.802	0.0154738
907.880	0.0156484
907.958	0.0156036
908.036	0.0157144
908.114	0.0156539
908.193	0.0156535
908.271	0.0156327
908.349	0.0156210
908.427	0.0155326
908.505	0.0154684
908.583	0.0157097
908.661	0.0154577
908.739	0.0156699
908.818	0.0156165
908.896	0.0156107
908.974	0.0156213
909.052	0.0154795
909.130	0.0157124
909.208	0.0155484
909.286	0.0155350
909.364	0.0157436
909.443	0.0155849
909.521	0.0154537
909.599	0.0154586
909.677	0.0154286
909.755	0.0154356
909.833	0.0153596
909.911	0.0153736
909.989	0.0152538
910.068	0.0154301
910.146	0.0154328
910.224	0.0153983
910.302	0.0154173
910.380	0.0154962
910.458	0.0154889
910.536	0.0154311
910.614	0.0154263
910.693	0.0154609
910.771	0.0154454
910.849	0.0156420
910.927	0.0154589
911.005	0.0154459
911.083	0.0156084
911.161	0.0154127
911.239	0.0153681
911.318	0.0155619
911.396	0.0154758
911.474	0.0153532
911.552	0.0154135
911.630	0.0154418
911.708	0.0154734
911.786	0.0155967
911.864	0.0154834
911.943	0.0153537
912.021	0.0155449
912.099	0.0155714
912.177	0.0154849
912.255	0.0155018
912.333	0.0156398
912.411	0.0155937
912.489	0.0156369
912.568	0.0154820
912.646	0.0156331
912.724	0.0157073
912.802	0.0156170
912.880	0.0156521
912.958	0.0156886
913.036	0.0155837
913.114	0.0155067
913.193	0.0153532
913.271	0.0154918
913.349	0.0155486
913.427	0.0153922
913.505	0.0154230
913.583	0.0155228
913.661	0.0154460
913.739	0.0153448
913.818	0.0154057
913.896	0.0154010
913.974	0.0155784
914.052	0.0154227
914.130	0.0155612
914.208	0.0155675
914.286	0.0154234
914.364	0.0155032
914.443	0.0155637
914.521	0.0155940
914.599	0.0154871
914.677	0.0156128
914.755	0.0155539
914.833	0.0155888
914.911	0.0155263
914.989	0.0154681
915.068	0.0155419
915.146	0.0154095
915.224	0.0154395
915.302	0.0153373
915.380	0.0155637
915.458	0.0154057
915.536	0.0153745
915.614	0.0153777
915.693	0.0154853
915.771	0.0153858
915.849	0.0155054
915.927	0.0154872
916.005	0.0154015
916.083	0.0155275
916.161	0.0156587
916.239	0.0154606
916.318	0.0155620
916.396	0.0155822
916.474	0.0155731
916.552	0.0154670
916.630	0.0155487
916.708	0.0155849
916.786	0.0154404
916.864	0.0155889
916.943	0.0155393
917.021	0.0155704
917.099	0.0156020
917.177	0.0156520
917.255	0.0154871
917.333	0.0155506
917.411	0.0155048
917.489	0.0156432
917.568	0.0156126
917.646	0.0156014
917.724	0.0155678
917.802	0.0156538
917.880	0.0157604
917.958	0.0155928
918.036	0.0156219
918.114	0.0157126
918.193	0.0156626
918.271	0.0156124
918.349	0.0155867
918.427	0.0155951
918.505	0.0156510
918.583	0.0155822
918.661	0.0156432
918.739	0.0155379
918.818	0.0154373
918.896	0.0155596
918.974	0.0156261
919.052	0.0154446
919.130	0.0155168
919.208	0.0154512
919.286	0.0155677
919.364	0.0154932
919.443	0.0154764
919.521	0.0155060
919.599	0.0155373
919.677	0.0155840
919.755	0.0154755
919.833	0.0154958
919.911	0.0155466
919.989	0.0156484
920.068	0.0156028
920.146	0.0156065
920.224	0.0155734
920.302	0.0156059
920.380	0.0156377
920.458	0.0156023
920.536	0.0155999
920.614	0.0156156
920.693	0.0156651
920.771	0.0154509
920.849	0.0155920
920.927	0.0156152
921.005	0.0156401
921.083	0.0156593
921.161	0.0155010
921.239	0.0156257
921.318	0.0157036
921.396	0.0154768
921.474	0.0156201
921.552	0.0155566
921.630	0.0154631
921.708	0.0156509
921.786	0.0155952
921.864	0.0154852
921.943	0.0153909
922.021	0.0155887
922.099	0.0155600
922.177	0.0156296
922.255	0.0155915
922.333	0.0155560
922.411	0.0154498
922.489	0.0154851
922.568	0.0156540
922.646	0.0156839
922.724	0.0156802
922.802	0.0157198
922.880	0.0156005
922.958	0.0157418
923.036	0.0155272
923.114	0.0155112
923.193	0.0156999
923.271	0.0155797
923.349	0.0155265
923.427	0.0155759
923.505	0.0155550
923.583	0.0156683
923.661	0.0155501
923.739	0.0155204
923.818	0.0156128
923.896	0.0155807
923.974	0.0155484
924.052	0.0155544
924.130	0.0156135
924.208	0.0156495
924.286	0.0154182
924.364	0.0154399
924.443	0.0154932
924.521	0.0155215
924.599	0.0155335
924.677	0.0156123
924.755	0.0154328
924.833	0.0154663
924.911	0.0156435
924.989	0.0154616
925.068	0.0156086
925.146	0.0155476
925.224	0.0156536
925.302	0.0155859
925.380	0.0154200
925.458	0.0155363
925.536	0.0154507
925.614	0.0154953
925.693	0.0155146
925.771	0.0154185
925.849	0.0154213
925.927	0.0154735
926.005	0.0154967
926.083	0.0154096
926.161	0.0154199
926.239	0.0155269
926.318	0.0154964
926.396	0.0155896
926.474	0.0154683
926.552	0.0155641
926.630	0.0155206
926.708	0.0154491
926.786	0.0154949
926.864	0.0154623
926.943	0.0154527
927.021	0.0154042
927.099	0.0154033
927.177	0.0155537
927.255	0.0153895
927.333	0.0154228
927.411	0.0155138
927.489	0.0155154
927.568	0.0155531
927.646	0.0154819
927.724	0.0156715
927.802	0.0155581
927.880	0.0155688
927.958	0.0156603
928.036	0.0156517
928.114	0.0154023
928.193	0.0155379
928.271	0.0155835
928.349	0.0155939
928.427	0.0156393
928.505	0.0155687
928.583	0.0154614
928.661	0.0155939
928.739	0.0153926
928.818	0.0154577
928.896	0.0155321
928.974	0.0154620
929.052	0.0155114
929.130	0.0153883
929.208	0.0154720
929.286	0.0153429
929.364	0.0155107
929.443	0.0154991
929.521	0.0155122
929.599	0.0153607
929.677	0.0155260
929.755	0.0156107
929.833	0.0155389
929.911	0.0154248
929.989	0.0155939
930.068	0.0154886
930.146	0.0154646
930.224	0.0154892
930.302	0.0155779
930.380	0.0156580
930.458	0.0154693
930.536	0.0155093
930.614	0.0155455
930.693	0.0156182
930.771	0.0156864
930.849	0.0156065
930.927	0.0155295
931.005	0.0156594
931.083	0.0155386
931.161	0.0155994
931.239	0.0156580
931.318	0.0155401
931.396	0.0155213
931.474	0.0155737
931.552	0.0156363
931.630	0.0154794
931.708	0.0154610
931.786	0.0155334
931.864	0.0155379
931.943	0.0156248
932.021	0.0154371
932.099	0.0154510
932.177	0.0156448
932.255	0.0154852
932.333	0.0155120
932.411	0.0155950
932.489	0.0153888
932.568	0.0154389
932.646	0.0157091
932.724	0.0156223
932.802	0.0155616
932.880	0.0155551
932.958	0.0155492
933.036	0.0155512
933.114	0.0156856
933.193	0.0155797
933.271	0.0155074
933.349	0.0156268
933.427	0.0157800
933.505	0.0155616
933.583	0.0153432
933.661	0.0154025
933.739	0.0153642
933.818	0.0152928
933.896	0.0153369
933.974	0.0153194
934.052	0.0154075
934.130	0.0153359
934.208	0.0152634
934.286	0.0153604
934.364	0.0153785
934.443	0.0153870
934.521	0.0154265
934.599	0.0153869
934.677	0.0154877
934.755	0.0154242
934.833	0.0155660
934.911	0.0156042
934.989	0.0155063
935.068	0.0155892
935.146	0.0156135
935.224	0.0157135
935.302	0.0156348
935.380	0.0155516
935.458	0.0155958
935.536	0.0155666
935.614	0.0156356
935.693	0.0156161
935.771	0.0155229
935.849	0.0156337
935.927	0.0155280
936.005	0.0155135
936.083	0.0155766
936.161	0.0154121
936.239	0.0154453
936.318	0.0152544
936.396	0.0155531
936.474	0.0155258
936.552	0.0156529
936.630	0.0155064
936.708	0.0155295
936.786	0.0154899
936.864	0.0156780
936.943	0.0156715
937.021	0.0155447
937.099	0.0155972
937.177	0.0155984
937.255	0.0156142
937.333	0.0156111
937.411	0.0155848
937.489	0.0155095
937.568	0.0155952
937.646	0.0154021
937.724	0.0155288
937.802	0.0154056
937.880	0.0154321
937.958	0.0154950
938.036	0.0155265
938.114	0.0153905
938.193	0.0154073
938.271	0.0153779
938.349	0.0155040
938.427	0.0153600
938.505	0.0154268
938.583	0.0154195
938.661	0.0154429
938.739	0.0154765
938.818	0.0154723
938.896	0.0155965
938.974	0.0155965
939.052	0.0154885
939.130	0.0155727
939.208	0.0156225
939.286	0.0156327
939.364	0.0155760
939.443	0.0155856
939.521	0.0155341
939.599	0.0156120
939.677	0.0155479
939.755	0.0156556
939.833	0.0156760
939.911	0.0154388
939.989	0.0154918
940.068	0.0155332
940.146	0.0155092
940.224	0.0155547
940.302	0.0154726
940.380	0.0154391
940.458	0.0155242
940.536	0.0153851
940.614	0.0155133
940.693	0.0155156
940.771	0.0154374
940.849	0.0154681
940.927	0.0154637
941.005	0.0153011
941.083	0.0154510
941.161	0.0155259
941.239	0.0155985
941.318	0.0155900
941.396	0.0156890
941.474	0.0157512
941.552	0.0156773
941.630	0.0156687
941.708	0.0158266
941.786	0.0157863
941.864	0.0157510
941.943	0.0158293
942.021	0.0158076
942.099	0.0158408
942.177	0.0156323
942.255	0.0156018
942.333	0.0155974
942.411	0.0156458
942.489	0.0156365
942.568	0.0154949
942.646	0.0154608
942.724	0.0154376
942.802	0.0154951
942.880	0.0154594
942.958	0.0153461
943.036	0.0154375
943.114	0.0154021
943.193	0.0153825
943.271	0.0154858
943.349	0.0153067
943.427	0.0154176
943.505	0.0154628
943.583	0.0155865
943.661	0.0155897
943.739	0.0154809
943.818	0.0156278
943.896	0.0155884
943.974	0.0155167
944.052	0.0156153
944.130	0.0156567
944.208	0.0157257
944.286	0.0156076
944.364	0.0156384
944.443	0.0156720
944.521	0.0157358
944.599	0.0156558
944.677	0.0157042
944.755	0.0155727
944.833	0.0156037
944.911	0.0156262
944.989	0.0155379
945.068	0.0155083
945.146	0.0154479
945.224	0.0153963
945.302	0.0154903
945.380	0.0154545
945.458	0.0155332
945.536	0.0155574
945.614	0.0154749
945.693	0.0154699
945.771	0.0154578
945.849	0.0154578
945.927	0.0154638
946.005	0.0154310
946.083	0.0154794
946.161	0.0155392
946.239	0.0155297
946.318	0.0153459
946.396	0.0154062
946.474	0.0156332
946.552	0.0156293
946.630	0.0155597
946.708	0.0155672
946.786	0.0155796
946.864	0.0154681
946.943	0.0155302
947.021	0.0154790
947.099	0.0156069
947.177	0.0156260
947.255	0.0155547
947.333	0.0155808
947.411	0.0156944
947.489	0.0155296
947.568	0.0155101
947.646	0.0155837
947.724	0.0156295
947.802	0.0154783
947.880	0.0155602
947.958	0.0156761
948.036	0.0156274
948.114	0.0155590
948.193	0.0155251
948.271	0.0155907
948.349	0.0156976
948.427	0.0158363
948.505	0.0156268
948.583	0.0157452
948.661	0.0156770
948.739	0.0158405
948.818	0.0157035
948.896	0.0155874
948.974	0.0156421
949.052	0.0155549
949.130	0.0154894
949.208	0.0157043
949.286	0.0156210
949.364	0.0155020
949.443	0.0154324
949.521	0.0154234
949.599	0.0153942
949.677	0.0154675
949.755	0.0155366
949.833	0.0155254
949.911	0.0155655
949.989	0.0155421
950.068	0.0155968
950.146	0.0154597
950.224	0.0156447
950.302	0.0156255
950.380	0.0157418
950.458	0.0156512
950.536	0.0155230
950.614	0.0156669
950.693	0.0155312
950.771	0.0156805
950.849	0.0156881
950.927	0.0155866
951.005	0.0155551
951.083	0.0156996
951.161	0.0154781
951.239	0.0154060
951.318	0.0152231
951.396	0.0154059
951.474	0.0154129
951.552	0.0153735
951.630	0.0152302
951.708	0.0154053
951.786	0.0154102
951.864	0.0154155
951.943	0.0156084
952.021	0.0155499
952.099	0.0154510
952.177	0.0155738
952.255	0.0155828
952.333	0.0153991
952.411	0.0155172
952.489	0.0156259
952.568	0.0156084
952.646	0.0155807
952.724	0.0157951
952.802	0.0156451
952.880	0.0156835
952.958	0.0156460
953.036	0.0154978
953.114	0.0155907
953.193	0.0154747
953.271	0.0153939
953.349	0.0155141
953.427	0.0155687
953.505	0.0154340
953.583	0.0153961
953.661	0.0153133
953.739	0.0155456
953.818	0.0154574
953.896	0.0154130
953.974	0.0154610
954.052	0.0153691
954.130	0.0155852
954.208	0.0154063
954.286	0.0153477
954.364	0.0154962
954.443	0.0155121
954.521	0.0155892
954.599	0.0155812
954.677	0.0156605
954.755	0.0156402
954.833	0.0155795
954.911	0.0155691
954.989	0.0157093
955.068	0.0156655
955.146	0.0157041
955.224	0.0156197
955.302	0.0156079
955.380	0.0156107
955.458	0.0156577
955.536	0.0155091
955.614	0.0154572
955.693	0.0154086
955.771	0.0154834
955.849	0.0154057
955.927	0.0154131
956.005	0.0154034
956.083	0.0154146
956.161	0.0153793
956.239	0.0154038
956.318	0.0153063
956.396	0.0154156
956.474	0.0154731
956.552	0.0154124
956.630	0.0152020
956.708	0.0154556
956.786	0.0155406
956.864	0.0154752
956.943	0.0154647
957.021	0.0155376
957.099	0.0154710
957.177	0.0154795
957.255	0.0156611
957.333	0.0156975
957.411	0.0156714
957.489	0.0155399
957.568	0.0157418
957.646	0.0156911
957.724	0.0156668
957.802	0.0156625
957.880	0.0156609
957.958	0.0156821
958.036	0.0155082
958.114	0.0155044
958.193	0.0155506
958.271	0.0155280
958.349	0.0154188
958.427	0.0153889
958.505	0.0154736
958.583	0.0153616
958.661	0.0155541
958.739	0.0154223
958.818	0.0153136
958.896	0.0153818
958.974	0.0155352
959.052	0.0155286
959.130	0.0155087
959.208	0.0155164
959.286	0.0155537
959.364	0.0153850
959.443	0.0154173
959.521	0.0155037
959.599	0.0156647
959.677	0.0155424
959.755	0.0155418
959.833	0.0155389
959.911	0.0155449
