05/17/2022	16:28:27	Ver.	4.1	UNKNOWN
Optical Delay	639.989416	Delta X		0.078125	Sweeps	1	Scan Rate	0/0
Coordinates	Axis 1	NaN	Axis 2	NaN	Axis 3	NaN	Axis 4	NaN	Axis 5	NaN	Axis 6	0.000000
TX Power	0.000000	RX Power	0.000000

639.989	0.0151760
640.068	0.0152380
640.146	0.0151795
640.224	0.0151625
640.302	0.0151180
640.380	0.0150686
640.458	0.0151684
640.536	0.0152029
640.614	0.0151707
640.693	0.0152533
640.771	0.0151829
640.849	0.0150039
640.927	0.0150757
641.005	0.0151829
641.083	0.0152239
641.161	0.0152345
641.239	0.0151347
641.318	0.0151042
641.396	0.0151920
641.474	0.0151366
641.552	0.0152197
641.630	0.0152701
641.708	0.0151554
641.786	0.0150695
641.864	0.0151384
641.943	0.0151913
642.021	0.0152798
642.099	0.0151485
642.177	0.0151984
642.255	0.0149999
642.333	0.0151588
642.411	0.0152617
642.489	0.0150569
642.568	0.0151000
642.646	0.0152110
642.724	0.0151649
642.802	0.0151427
642.880	0.0151271
642.958	0.0151974
643.036	0.0152895
643.114	0.0152382
643.193	0.0152819
643.271	0.0152566
643.349	0.0150482
643.427	0.0149812
643.505	0.0151542
643.583	0.0151137
643.661	0.0152283
643.739	0.0152618
643.818	0.0151135
643.896	0.0151853
643.974	0.0151781
644.052	0.0151347
644.130	0.0152500
644.208	0.0152346
644.286	0.0149926
644.364	0.0150533
644.443	0.0150893
644.521	0.0152982
644.599	0.0152889
644.677	0.0153467
644.755	0.0151908
644.833	0.0151952
644.911	0.0152953
644.989	0.0151543
645.068	0.0151572
645.146	0.0152119
645.224	0.0151554
645.302	0.0152055
645.380	0.0152866
645.458	0.0150848
645.536	0.0151341
645.614	0.0151704
645.693	0.0151584
645.771	0.0151653
645.849	0.0152553
645.927	0.0151521
646.005	0.0152119
646.083	0.0151521
646.161	0.0152139
646.239	0.0150715
646.318	0.0152536
646.396	0.0151042
646.474	0.0151899
646.552	0.0153366
646.630	0.0152170
646.708	0.0150430
646.786	0.0151507
646.864	0.0152934
646.943	0.0150462
647.021	0.0151590
647.099	0.0150608
647.177	0.0151383
647.255	0.0151231
647.333	0.0152483
647.411	0.0150623
647.489	0.0151257
647.568	0.0151292
647.646	0.0151320
647.724	0.0150607
647.802	0.0151923
647.880	0.0150850
647.958	0.0151138
648.036	0.0150830
648.114	0.0149400
648.193	0.0151019
648.271	0.0152317
648.349	0.0150110
648.427	0.0151132
648.505	0.0151910
648.583	0.0150529
648.661	0.0151357
648.739	0.0151465
648.818	0.0152171
648.896	0.0151330
648.974	0.0151741
649.052	0.0151144
649.130	0.0153252
649.208	0.0151360
649.286	0.0151853
649.364	0.0151412
649.443	0.0151106
649.521	0.0150823
649.599	0.0150191
649.677	0.0150851
649.755	0.0152889
649.833	0.0150076
649.911	0.0151704
649.989	0.0151736
650.068	0.0151847
650.146	0.0152418
650.224	0.0151614
650.302	0.0150160
650.380	0.0151646
650.458	0.0151310
650.536	0.0152868
650.614	0.0152151
650.693	0.0151363
650.771	0.0150417
650.849	0.0151713
650.927	0.0151241
651.005	0.0150883
651.083	0.0152064
651.161	0.0150523
651.239	0.0150957
651.318	0.0151936
651.396	0.0151743
651.474	0.0151852
651.552	0.0150900
651.630	0.0150477
651.708	0.0150824
651.786	0.0151956
651.864	0.0150870
651.943	0.0150914
652.021	0.0151875
652.099	0.0150912
652.177	0.0151476
652.255	0.0151503
652.333	0.0151876
652.411	0.0149972
652.489	0.0152807
652.568	0.0153185
652.646	0.0151838
652.724	0.0152057
652.802	0.0151437
652.880	0.0151909
652.958	0.0150329
653.036	0.0151687
653.114	0.0152074
653.193	0.0152106
653.271	0.0151794
653.349	0.0151292
653.427	0.0151856
653.505	0.0151404
653.583	0.0152206
653.661	0.0152110
653.739	0.0152860
653.818	0.0150729
653.896	0.0151589
653.974	0.0151466
654.052	0.0150014
654.130	0.0151530
654.208	0.0152911
654.286	0.0151260
654.364	0.0151348
654.443	0.0152489
654.521	0.0151987
654.599	0.0151811
654.677	0.0151318
654.755	0.0151157
654.833	0.0151274
654.911	0.0151755
654.989	0.0152520
655.068	0.0152773
655.146	0.0152342
655.224	0.0151948
655.302	0.0151671
655.380	0.0151591
655.458	0.0151741
655.536	0.0151664
655.614	0.0151273
655.693	0.0151162
655.771	0.0153194
655.849	0.0151453
655.927	0.0151987
656.005	0.0151659
656.083	0.0151369
656.161	0.0151817
656.239	0.0151534
656.318	0.0150525
656.396	0.0151984
656.474	0.0152554
656.552	0.0151141
656.630	0.0150982
656.708	0.0151151
656.786	0.0150690
656.864	0.0152293
656.943	0.0150845
657.021	0.0151630
657.099	0.0152209
657.177	0.0151241
657.255	0.0150125
657.333	0.0150365
657.411	0.0151635
657.489	0.0152511
657.568	0.0152643
657.646	0.0152414
657.724	0.0151794
657.802	0.0150525
657.880	0.0151817
657.958	0.0153172
658.036	0.0150735
658.114	0.0151989
658.193	0.0152559
658.271	0.0150491
658.349	0.0151112
658.427	0.0152074
658.505	0.0151045
658.583	0.0151576
658.661	0.0151488
658.739	0.0151783
658.818	0.0151559
658.896	0.0151530
658.974	0.0151403
659.052	0.0151103
659.130	0.0151100
659.208	0.0151854
659.286	0.0151004
659.364	0.0152275
659.443	0.0152757
659.521	0.0150168
659.599	0.0151611
659.677	0.0150912
659.755	0.0151614
659.833	0.0151203
659.911	0.0151063
659.989	0.0151649
660.068	0.0151273
660.146	0.0151276
660.224	0.0151443
660.302	0.0151640
660.380	0.0150410
660.458	0.0152386
660.536	0.0151409
660.614	0.0151702
660.693	0.0151877
660.771	0.0152095
660.849	0.0151092
660.927	0.0150578
661.005	0.0150930
661.083	0.0151025
661.161	0.0152316
661.239	0.0151054
661.318	0.0151865
661.396	0.0151524
661.474	0.0151377
661.552	0.0151685
661.630	0.0151761
661.708	0.0150848
661.786	0.0151719
661.864	0.0152876
661.943	0.0150128
662.021	0.0151067
662.099	0.0151485
662.177	0.0150134
662.255	0.0152282
662.333	0.0151489
662.411	0.0150663
662.489	0.0150666
662.568	0.0152515
662.646	0.0149964
662.724	0.0151236
662.802	0.0152972
662.880	0.0152187
662.958	0.0152011
663.036	0.0152099
663.114	0.0151718
663.193	0.0151044
663.271	0.0152994
663.349	0.0151287
663.427	0.0150532
663.505	0.0151850
663.583	0.0151130
663.661	0.0151389
663.739	0.0152925
663.818	0.0151031
663.896	0.0151608
663.974	0.0151439
664.052	0.0150687
664.130	0.0151416
664.208	0.0151238
664.286	0.0152837
664.364	0.0151115
664.443	0.0151009
664.521	0.0150623
664.599	0.0150857
664.677	0.0150870
664.755	0.0151485
664.833	0.0150336
664.911	0.0150458
664.989	0.0152654
665.068	0.0150951
665.146	0.0150645
665.224	0.0151344
665.302	0.0151438
665.380	0.0153123
665.458	0.0151212
665.536	0.0151001
665.614	0.0151881
665.693	0.0150510
665.771	0.0151247
665.849	0.0151358
665.927	0.0150802
666.005	0.0152036
666.083	0.0150562
666.161	0.0150836
666.239	0.0152448
666.318	0.0151068
666.396	0.0152264
666.474	0.0151068
666.552	0.0151867
666.630	0.0152178
666.708	0.0152354
666.786	0.0150670
666.864	0.0150542
666.943	0.0151186
667.021	0.0151497
667.099	0.0149773
667.177	0.0153571
667.255	0.0152582
667.333	0.0151653
667.411	0.0151750
667.489	0.0152068
667.568	0.0151575
667.646	0.0151917
667.724	0.0152293
667.802	0.0151102
667.880	0.0151402
667.958	0.0151226
668.036	0.0151517
668.114	0.0151970
668.193	0.0151035
668.271	0.0151067
668.349	0.0149721
668.427	0.0151992
668.505	0.0153020
668.583	0.0150259
668.661	0.0151702
668.739	0.0151692
668.818	0.0151145
668.896	0.0150562
668.974	0.0150842
669.052	0.0151167
669.130	0.0150426
669.208	0.0149972
669.286	0.0151321
669.364	0.0151678
669.443	0.0150859
669.521	0.0152402
669.599	0.0150949
669.677	0.0151802
669.755	0.0151467
669.833	0.0151795
669.911	0.0150384
669.989	0.0149353
670.068	0.0150941
670.146	0.0153074
670.224	0.0152598
670.302	0.0151384
670.380	0.0151296
670.458	0.0151170
670.536	0.0151485
670.614	0.0152735
670.693	0.0151497
670.771	0.0150521
670.849	0.0150912
670.927	0.0152337
671.005	0.0152164
671.083	0.0152426
671.161	0.0151923
671.239	0.0151247
671.318	0.0151739
671.396	0.0151248
671.474	0.0151520
671.552	0.0150343
671.630	0.0151360
671.708	0.0151588
671.786	0.0151075
671.864	0.0151176
671.943	0.0151087
672.021	0.0151740
672.099	0.0152633
672.177	0.0150855
672.255	0.0152193
672.333	0.0151077
672.411	0.0151916
672.489	0.0151254
672.568	0.0152077
672.646	0.0151466
672.724	0.0150890
672.802	0.0151278
672.880	0.0150491
672.958	0.0151272
673.036	0.0151446
673.114	0.0150462
673.193	0.0150602
673.271	0.0150294
673.349	0.0150355
673.427	0.0151227
673.505	0.0152179
673.583	0.0150372
673.661	0.0150543
673.739	0.0151012
673.818	0.0151485
673.896	0.0150197
673.974	0.0152135
674.052	0.0151182
674.130	0.0151120
674.208	0.0149529
674.286	0.0150240
674.364	0.0152759
674.443	0.0150905
674.521	0.0150793
674.599	0.0150118
674.677	0.0150462
674.755	0.0150401
674.833	0.0149500
674.911	0.0149013
674.989	0.0150041
675.068	0.0149417
675.146	0.0150555
675.224	0.0150521
675.302	0.0150801
675.380	0.0150365
675.458	0.0149999
675.536	0.0148553
675.614	0.0150990
675.693	0.0149972
675.771	0.0151746
675.849	0.0150732
675.927	0.0151212
676.005	0.0150916
676.083	0.0149671
676.161	0.0150484
676.239	0.0151257
676.318	0.0150184
676.396	0.0150916
676.474	0.0149979
676.552	0.0150182
676.630	0.0150994
676.708	0.0150500
676.786	0.0150246
676.864	0.0150264
676.943	0.0150638
677.021	0.0149964
677.099	0.0150958
677.177	0.0150269
677.255	0.0149625
677.333	0.0152104
677.411	0.0150939
677.489	0.0150549
677.568	0.0150555
677.646	0.0151707
677.724	0.0151703
677.802	0.0151618
677.880	0.0150267
677.958	0.0150063
678.036	0.0151318
678.114	0.0150520
678.193	0.0150986
678.271	0.0149768
678.349	0.0150304
678.427	0.0150865
678.505	0.0151784
678.583	0.0150779
678.661	0.0151187
678.739	0.0150655
678.818	0.0151438
678.896	0.0151663
678.974	0.0150968
679.052	0.0151440
679.130	0.0149302
679.208	0.0151250
679.286	0.0152339
679.364	0.0151241
679.443	0.0151496
679.521	0.0149422
679.599	0.0150454
679.677	0.0151056
679.755	0.0151944
679.833	0.0151860
679.911	0.0151404
679.989	0.0151434
680.068	0.0151511
680.146	0.0151163
680.224	0.0152310
680.302	0.0152348
680.380	0.0152226
680.458	0.0151651
680.536	0.0150932
680.614	0.0151413
680.693	0.0151244
680.771	0.0151317
680.849	0.0151893
680.927	0.0151818
681.005	0.0152310
681.083	0.0151817
681.161	0.0151802
681.239	0.0151557
681.318	0.0151281
681.396	0.0151020
681.474	0.0151086
681.552	0.0152425
681.630	0.0151709
681.708	0.0151536
681.786	0.0152651
681.864	0.0150867
681.943	0.0151074
682.021	0.0150795
682.099	0.0151855
682.177	0.0152053
682.255	0.0151084
682.333	0.0152213
682.411	0.0151177
682.489	0.0150677
682.568	0.0151685
682.646	0.0151542
682.724	0.0153307
682.802	0.0149615
682.880	0.0150846
682.958	0.0151138
683.036	0.0152581
683.114	0.0151075
683.193	0.0151082
683.271	0.0150356
683.349	0.0152847
683.427	0.0152660
683.505	0.0153376
683.583	0.0151911
683.661	0.0151884
683.739	0.0151664
683.818	0.0151498
683.896	0.0150751
683.974	0.0151023
684.052	0.0152522
684.130	0.0151524
684.208	0.0150679
684.286	0.0152576
684.364	0.0151005
684.443	0.0151511
684.521	0.0151055
684.599	0.0151321
684.677	0.0152088
684.755	0.0150639
684.833	0.0151381
684.911	0.0151950
684.989	0.0150587
685.068	0.0151041
685.146	0.0151446
685.224	0.0152137
685.302	0.0151027
685.380	0.0151844
685.458	0.0151175
685.536	0.0151497
685.614	0.0151768
685.693	0.0150932
685.771	0.0151966
685.849	0.0150950
685.927	0.0150301
686.005	0.0152611
686.083	0.0150959
686.161	0.0151708
686.239	0.0152764
686.318	0.0153293
686.396	0.0151772
686.474	0.0151116
686.552	0.0150960
686.630	0.0151869
686.708	0.0150325
686.786	0.0150892
686.864	0.0152945
686.943	0.0151179
687.021	0.0151498
687.099	0.0151663
687.177	0.0152180
687.255	0.0152345
687.333	0.0151608
687.411	0.0151417
687.489	0.0152178
687.568	0.0150529
687.646	0.0150984
687.724	0.0150898
687.802	0.0152848
687.880	0.0151685
687.958	0.0151115
688.036	0.0151608
688.114	0.0150319
688.193	0.0151291
688.271	0.0151060
688.349	0.0151771
688.427	0.0151131
688.505	0.0151443
688.583	0.0152162
688.661	0.0152177
688.739	0.0149819
688.818	0.0151048
688.896	0.0150292
688.974	0.0150430
689.052	0.0149988
689.130	0.0150504
689.208	0.0151122
689.286	0.0151418
689.364	0.0151893
689.443	0.0151740
689.521	0.0151089
689.599	0.0151659
689.677	0.0152531
689.755	0.0151886
689.833	0.0151918
689.911	0.0151553
689.989	0.0151267
690.068	0.0151720
690.146	0.0150403
690.224	0.0150156
690.302	0.0150797
690.380	0.0150301
690.458	0.0152062
690.536	0.0150668
690.614	0.0150228
690.693	0.0151932
690.771	0.0150998
690.849	0.0151099
690.927	0.0152276
691.005	0.0151662
691.083	0.0151015
691.161	0.0150861
691.239	0.0152242
691.318	0.0151614
691.396	0.0152135
691.474	0.0152032
691.552	0.0151230
691.630	0.0152995
691.708	0.0152194
691.786	0.0151313
691.864	0.0151293
691.943	0.0151101
692.021	0.0152200
692.099	0.0151660
692.177	0.0150467
692.255	0.0152451
692.333	0.0149760
692.411	0.0149989
692.489	0.0151324
692.568	0.0150438
692.646	0.0150704
692.724	0.0149857
692.802	0.0149708
692.880	0.0151538
692.958	0.0150622
693.036	0.0151322
693.114	0.0150938
693.193	0.0151540
693.271	0.0151785
693.349	0.0151409
693.427	0.0152762
693.505	0.0151038
693.583	0.0151259
693.661	0.0152534
693.739	0.0152122
693.818	0.0153257
693.896	0.0152076
693.974	0.0151752
694.052	0.0152782
694.130	0.0151739
694.208	0.0152426
694.286	0.0152131
694.364	0.0150410
694.443	0.0151024
694.521	0.0151058
694.599	0.0151064
694.677	0.0151820
694.755	0.0151630
694.833	0.0150764
694.911	0.0149903
694.989	0.0150629
695.068	0.0150307
695.146	0.0149712
695.224	0.0150784
695.302	0.0150375
695.380	0.0149957
695.458	0.0150145
695.536	0.0150401
695.614	0.0150790
695.693	0.0152152
695.771	0.0151760
695.849	0.0149692
695.927	0.0150884
696.005	0.0150990
696.083	0.0151326
696.161	0.0152081
696.239	0.0151854
696.318	0.0151152
696.396	0.0152367
696.474	0.0151694
696.552	0.0152272
696.630	0.0152933
696.708	0.0151585
696.786	0.0152048
696.864	0.0151108
696.943	0.0151301
697.021	0.0150679
697.099	0.0151603
697.177	0.0151304
697.255	0.0152804
697.333	0.0151933
697.411	0.0151569
697.489	0.0152502
697.568	0.0151115
697.646	0.0150594
697.724	0.0151425
697.802	0.0152194
697.880	0.0150993
697.958	0.0150933
698.036	0.0150996
698.114	0.0150725
698.193	0.0150693
698.271	0.0151853
698.349	0.0150924
698.427	0.0150393
698.505	0.0150348
698.583	0.0151170
698.661	0.0150563
698.739	0.0150637
698.818	0.0151501
698.896	0.0150774
698.974	0.0150706
699.052	0.0151073
699.130	0.0150969
699.208	0.0150008
699.286	0.0149883
699.364	0.0149696
699.443	0.0151176
699.521	0.0150386
699.599	0.0149515
699.677	0.0148883
699.755	0.0149799
699.833	0.0151866
699.911	0.0149216
699.989	0.0150068
700.068	0.0151015
700.146	0.0151205
700.224	0.0151844
700.302	0.0150323
700.380	0.0151004
700.458	0.0151765
700.536	0.0150568
700.614	0.0151752
700.693	0.0151690
700.771	0.0154620
700.849	0.0153326
700.927	0.0152788
701.005	0.0151117
701.083	0.0152377
701.161	0.0151269
701.239	0.0151616
701.318	0.0151610
701.396	0.0151276
701.474	0.0151990
701.552	0.0151302
701.630	0.0150775
701.708	0.0151858
701.786	0.0149905
701.864	0.0151236
701.943	0.0149758
702.021	0.0150227
702.099	0.0149779
702.177	0.0150475
702.255	0.0150514
702.333	0.0150694
702.411	0.0150488
702.489	0.0149928
702.568	0.0150175
702.646	0.0151359
702.724	0.0151027
702.802	0.0150380
702.880	0.0151584
702.958	0.0151717
703.036	0.0150619
703.114	0.0151284
703.193	0.0150915
703.271	0.0149931
703.349	0.0150858
703.427	0.0152905
703.505	0.0149802
703.583	0.0148750
703.661	0.0151380
703.739	0.0151094
703.818	0.0150193
703.896	0.0152013
703.974	0.0151431
704.052	0.0151253
704.130	0.0151616
704.208	0.0153392
704.286	0.0153841
704.364	0.0150750
704.443	0.0153295
704.521	0.0152702
704.599	0.0152950
704.677	0.0151828
704.755	0.0151839
704.833	0.0151701
704.911	0.0151681
704.989	0.0151216
705.068	0.0152215
705.146	0.0151259
705.224	0.0151861
705.302	0.0150944
705.380	0.0151089
705.458	0.0151064
705.536	0.0152819
705.614	0.0152131
705.693	0.0149873
705.771	0.0151308
705.849	0.0150848
705.927	0.0150681
706.005	0.0150887
706.083	0.0151336
706.161	0.0152442
706.239	0.0150641
706.318	0.0151443
706.396	0.0151923
706.474	0.0153024
706.552	0.0151186
706.630	0.0152551
706.708	0.0153223
706.786	0.0153885
706.864	0.0152757
706.943	0.0154056
707.021	0.0152924
707.099	0.0152511
707.177	0.0150520
707.255	0.0151660
707.333	0.0150267
707.411	0.0150257
707.489	0.0149494
707.568	0.0149850
707.646	0.0150877
707.724	0.0151527
707.802	0.0150826
707.880	0.0149787
707.958	0.0150782
708.036	0.0150970
708.114	0.0149780
708.193	0.0150380
708.271	0.0151566
708.349	0.0150850
708.427	0.0151696
708.505	0.0152399
708.583	0.0151124
708.661	0.0151686
708.739	0.0152798
708.818	0.0151004
708.896	0.0151203
708.974	0.0151945
709.052	0.0152031
709.130	0.0151759
709.208	0.0152468
709.286	0.0152879
709.364	0.0152306
709.443	0.0153046
709.521	0.0151699
709.599	0.0153495
709.677	0.0152288
709.755	0.0153517
709.833	0.0152876
709.911	0.0152239
709.989	0.0152393
710.068	0.0153330
710.146	0.0153293
710.224	0.0152869
710.302	0.0150806
710.380	0.0151941
710.458	0.0152451
710.536	0.0150781
710.614	0.0151142
710.693	0.0149451
710.771	0.0148403
710.849	0.0147075
710.927	0.0147546
711.005	0.0147285
711.083	0.0147436
711.161	0.0147840
711.239	0.0148746
711.318	0.0149548
711.396	0.0149620
711.474	0.0152039
711.552	0.0154416
711.630	0.0153918
711.708	0.0155504
711.786	0.0154882
711.864	0.0157094
711.943	0.0156315
712.021	0.0157178
712.099	0.0158292
712.177	0.0157863
712.255	0.0156542
712.333	0.0154652
712.411	0.0153374
712.489	0.0152963
712.568	0.0150598
712.646	0.0147202
712.724	0.0147287
712.802	0.0147515
712.880	0.0145127
712.958	0.0145023
713.036	0.0143720
713.114	0.0144826
713.193	0.0145509
713.271	0.0145324
713.349	0.0145305
713.427	0.0147803
713.505	0.0148341
713.583	0.0151436
713.661	0.0151776
713.739	0.0154346
713.818	0.0157585
713.896	0.0156853
713.974	0.0160524
714.052	0.0160152
714.130	0.0160408
714.208	0.0160691
714.286	0.0159876
714.364	0.0158997
714.443	0.0157109
714.521	0.0155710
714.599	0.0152257
714.677	0.0149347
714.755	0.0148503
714.833	0.0145650
714.911	0.0145219
714.989	0.0144463
715.068	0.0141758
715.146	0.0142047
715.224	0.0141138
715.302	0.0142088
715.380	0.0142809
715.458	0.0145850
715.536	0.0147375
715.614	0.0149441
715.693	0.0150434
715.771	0.0151914
715.849	0.0153902
715.927	0.0155763
716.005	0.0159208
716.083	0.0159387
716.161	0.0159681
716.239	0.0159113
716.318	0.0157700
716.396	0.0157098
716.474	0.0156525
716.552	0.0154884
716.630	0.0153037
716.708	0.0150504
716.786	0.0150948
716.864	0.0147993
716.943	0.0148515
717.021	0.0148785
717.099	0.0148405
717.177	0.0149186
717.255	0.0151208
717.333	0.0150870
717.411	0.0152085
717.489	0.0152231
717.568	0.0152392
717.646	0.0154023
717.724	0.0152092
717.802	0.0150954
717.880	0.0150304
717.958	0.0149622
718.036	0.0151612
718.114	0.0149220
718.193	0.0147858
718.271	0.0146437
718.349	0.0148174
718.427	0.0147672
718.505	0.0148138
718.583	0.0148730
718.661	0.0148685
718.739	0.0150100
718.818	0.0149921
718.896	0.0149474
718.974	0.0150806
719.052	0.0151268
719.130	0.0152741
719.208	0.0153951
719.286	0.0154236
719.364	0.0155109
719.443	0.0154047
719.521	0.0154797
719.599	0.0154317
719.677	0.0153539
719.755	0.0154884
719.833	0.0155170
719.911	0.0153312
719.989	0.0152030
720.068	0.0151352
720.146	0.0152320
720.224	0.0150792
720.302	0.0149758
720.380	0.0149679
720.458	0.0150365
720.536	0.0149180
720.614	0.0149497
720.693	0.0150124
720.771	0.0150908
720.849	0.0149536
720.927	0.0148615
721.005	0.0150175
721.083	0.0149367
721.161	0.0150212
721.239	0.0149728
721.318	0.0150399
721.396	0.0150268
721.474	0.0151496
721.552	0.0151579
721.630	0.0153082
721.708	0.0153794
721.786	0.0154539
721.864	0.0154642
721.943	0.0155342
722.021	0.0157226
722.099	0.0154963
722.177	0.0154823
722.255	0.0154015
722.333	0.0153442
722.411	0.0151816
722.489	0.0150681
722.568	0.0149641
722.646	0.0149722
722.724	0.0148471
722.802	0.0148218
722.880	0.0148199
722.958	0.0147327
723.036	0.0147987
723.114	0.0146966
723.193	0.0147680
723.271	0.0149227
723.349	0.0147829
723.427	0.0148552
723.505	0.0149588
723.583	0.0149681
723.661	0.0152242
723.739	0.0151641
723.818	0.0153393
723.896	0.0153777
723.974	0.0153883
724.052	0.0153348
724.130	0.0154266
724.208	0.0155491
724.286	0.0153492
724.364	0.0154618
724.443	0.0155457
724.521	0.0152448
724.599	0.0152438
724.677	0.0152106
724.755	0.0152496
724.833	0.0151443
724.911	0.0152214
724.989	0.0151820
725.068	0.0151425
725.146	0.0152178
725.224	0.0149707
725.302	0.0148707
725.380	0.0149255
725.458	0.0149664
725.536	0.0148783
725.614	0.0149680
725.693	0.0149214
725.771	0.0149548
725.849	0.0150257
725.927	0.0151589
726.005	0.0151362
726.083	0.0151727
726.161	0.0150352
726.239	0.0151773
726.318	0.0151839
726.396	0.0152504
726.474	0.0152503
726.552	0.0153883
726.630	0.0153496
726.708	0.0152793
726.786	0.0153609
726.864	0.0152783
726.943	0.0152912
727.021	0.0153484
727.099	0.0153701
727.177	0.0152845
727.255	0.0151385
727.333	0.0153220
727.411	0.0152426
727.489	0.0150388
727.568	0.0152993
727.646	0.0150813
727.724	0.0149622
727.802	0.0149753
727.880	0.0148640
727.958	0.0148999
728.036	0.0149701
728.114	0.0149236
728.193	0.0148463
728.271	0.0148894
728.349	0.0149283
728.427	0.0148981
728.505	0.0148577
728.583	0.0149505
728.661	0.0150932
728.739	0.0151047
728.818	0.0150755
728.896	0.0153259
728.974	0.0152277
729.052	0.0152403
729.130	0.0153642
729.208	0.0153292
729.286	0.0153813
729.364	0.0153340
729.443	0.0153497
729.521	0.0152262
729.599	0.0151029
729.677	0.0151068
729.755	0.0150820
729.833	0.0149019
729.911	0.0150272
729.989	0.0148765
730.068	0.0147935
730.146	0.0148161
730.224	0.0146386
730.302	0.0146699
730.380	0.0148540
730.458	0.0148962
730.536	0.0148322
730.614	0.0150515
730.693	0.0148759
730.771	0.0150818
730.849	0.0152155
730.927	0.0152907
731.005	0.0153122
731.083	0.0152820
731.161	0.0153136
731.239	0.0155019
731.318	0.0154174
731.396	0.0152866
731.474	0.0153761
731.552	0.0153166
731.630	0.0152693
731.708	0.0151717
731.786	0.0150272
731.864	0.0151394
731.943	0.0151151
732.021	0.0151543
732.099	0.0149695
732.177	0.0150051
732.255	0.0149370
732.333	0.0150329
732.411	0.0149023
732.489	0.0151092
732.568	0.0150600
732.646	0.0152683
732.724	0.0152430
732.802	0.0152860
732.880	0.0154626
732.958	0.0153726
733.036	0.0153828
733.114	0.0153704
733.193	0.0153476
733.271	0.0152952
733.349	0.0153516
733.427	0.0153078
733.505	0.0151777
733.583	0.0151727
733.661	0.0151550
733.739	0.0150965
733.818	0.0150405
733.896	0.0150397
733.974	0.0150494
734.052	0.0150349
734.130	0.0150732
734.208	0.0151960
734.286	0.0151289
734.364	0.0151295
734.443	0.0151978
734.521	0.0151447
734.599	0.0151981
734.677	0.0152148
734.755	0.0152474
734.833	0.0152097
734.911	0.0152573
734.989	0.0151183
735.068	0.0151752
735.146	0.0152428
735.224	0.0149056
735.302	0.0150426
735.380	0.0149581
735.458	0.0149399
735.536	0.0149932
735.614	0.0150490
735.693	0.0149467
735.771	0.0147776
735.849	0.0149433
735.927	0.0150457
736.005	0.0150350
736.083	0.0152218
736.161	0.0152261
736.239	0.0152987
736.318	0.0153675
736.396	0.0153107
736.474	0.0151332
736.552	0.0152148
736.630	0.0153167
736.708	0.0154115
736.786	0.0152150
736.864	0.0151521
736.943	0.0151093
737.021	0.0150320
737.099	0.0149696
737.177	0.0149596
737.255	0.0149061
737.333	0.0147832
737.411	0.0148377
737.489	0.0148641
737.568	0.0149986
737.646	0.0149068
737.724	0.0149215
737.802	0.0150809
737.880	0.0150672
737.958	0.0151358
738.036	0.0152191
738.114	0.0152076
738.193	0.0154243
738.271	0.0153199
738.349	0.0153470
738.427	0.0153027
738.505	0.0153439
738.583	0.0153624
738.661	0.0152158
738.739	0.0152977
738.818	0.0152477
738.896	0.0150894
738.974	0.0151338
739.052	0.0149628
739.130	0.0150323
739.208	0.0150387
739.286	0.0148989
739.364	0.0148889
739.443	0.0150228
739.521	0.0150482
739.599	0.0149308
739.677	0.0150297
739.755	0.0151279
739.833	0.0150468
739.911	0.0151727
739.989	0.0152038
740.068	0.0150914
740.146	0.0153639
740.224	0.0153935
740.302	0.0153756
740.380	0.0153128
740.458	0.0151914
740.536	0.0153352
740.614	0.0153413
740.693	0.0151598
740.771	0.0151013
740.849	0.0151261
740.927	0.0151099
741.005	0.0151265
741.083	0.0150307
741.161	0.0151318
741.239	0.0149960
741.318	0.0149841
741.396	0.0149798
741.474	0.0151193
741.552	0.0152399
741.630	0.0149763
741.708	0.0149994
741.786	0.0150165
741.864	0.0148943
741.943	0.0149847
742.021	0.0150494
742.099	0.0151362
742.177	0.0152449
742.255	0.0151747
742.333	0.0151598
742.411	0.0151484
742.489	0.0150749
742.568	0.0150529
742.646	0.0150346
742.724	0.0149849
742.802	0.0151198
742.880	0.0149958
742.958	0.0149209
743.036	0.0149911
743.114	0.0149879
743.193	0.0148754
743.271	0.0149450
743.349	0.0150303
743.427	0.0149625
743.505	0.0150606
743.583	0.0151172
743.661	0.0151156
743.739	0.0152117
743.818	0.0151418
743.896	0.0152427
743.974	0.0152149
744.052	0.0152569
744.130	0.0153054
744.208	0.0153933
744.286	0.0153015
744.364	0.0151814
744.443	0.0151799
744.521	0.0150294
744.599	0.0149371
744.677	0.0150549
744.755	0.0151124
744.833	0.0150122
744.911	0.0148969
744.989	0.0149386
745.068	0.0149324
745.146	0.0148608
745.224	0.0148669
745.302	0.0149171
745.380	0.0149695
745.458	0.0148503
745.536	0.0149294
745.614	0.0151640
745.693	0.0152192
745.771	0.0151839
745.849	0.0152845
745.927	0.0151959
746.005	0.0153152
746.083	0.0154594
746.161	0.0154298
746.239	0.0154648
746.318	0.0154409
746.396	0.0153315
746.474	0.0152319
746.552	0.0152840
746.630	0.0152322
746.708	0.0152519
746.786	0.0151286
746.864	0.0150944
746.943	0.0150377
747.021	0.0151248
747.099	0.0148669
747.177	0.0150746
747.255	0.0147845
747.333	0.0149619
747.411	0.0151207
747.489	0.0148826
747.568	0.0150286
747.646	0.0151483
747.724	0.0150349
747.802	0.0151678
747.880	0.0152139
747.958	0.0152766
748.036	0.0152026
748.114	0.0152107
748.193	0.0152157
748.271	0.0153255
748.349	0.0152383
748.427	0.0150926
748.505	0.0151958
748.583	0.0151716
748.661	0.0150811
748.739	0.0150525
748.818	0.0151189
748.896	0.0149251
748.974	0.0150565
749.052	0.0149902
749.130	0.0150114
749.208	0.0151327
749.286	0.0149859
749.364	0.0150121
749.443	0.0151089
749.521	0.0152189
749.599	0.0151425
749.677	0.0150126
749.755	0.0151043
749.833	0.0151327
749.911	0.0150945
749.989	0.0152091
750.068	0.0151569
750.146	0.0153120
750.224	0.0152538
750.302	0.0151163
750.380	0.0152005
750.458	0.0151824
750.536	0.0150689
750.614	0.0149973
750.693	0.0149953
750.771	0.0150002
750.849	0.0149097
750.927	0.0149835
751.005	0.0148880
751.083	0.0150191
751.161	0.0151347
751.239	0.0149522
751.318	0.0149077
751.396	0.0149810
751.474	0.0151324
751.552	0.0152451
751.630	0.0152616
751.708	0.0151031
751.786	0.0153056
751.864	0.0153600
751.943	0.0153802
752.021	0.0153141
752.099	0.0152381
752.177	0.0153416
752.255	0.0153162
752.333	0.0151706
752.411	0.0151298
752.489	0.0151307
752.568	0.0151170
752.646	0.0150629
752.724	0.0149289
752.802	0.0149805
752.880	0.0148920
752.958	0.0148701
753.036	0.0150689
753.114	0.0150149
753.193	0.0148206
753.271	0.0149081
753.349	0.0150569
753.427	0.0151336
753.505	0.0151154
753.583	0.0151230
753.661	0.0151749
753.739	0.0152515
753.818	0.0152180
753.896	0.0152394
753.974	0.0152992
754.052	0.0153117
754.130	0.0153828
754.208	0.0153281
754.286	0.0152370
754.364	0.0151924
754.443	0.0151855
754.521	0.0150388
754.599	0.0151540
754.677	0.0151688
754.755	0.0151324
754.833	0.0150970
754.911	0.0149489
754.989	0.0149944
755.068	0.0149637
755.146	0.0149471
755.224	0.0149390
755.302	0.0150981
755.380	0.0150346
755.458	0.0150204
755.536	0.0150613
755.614	0.0152693
755.693	0.0152587
755.771	0.0152065
755.849	0.0152715
755.927	0.0153829
756.005	0.0152480
756.083	0.0152008
756.161	0.0152866
756.239	0.0151205
756.318	0.0152081
756.396	0.0152390
756.474	0.0152493
756.552	0.0152174
756.630	0.0153129
756.708	0.0152583
756.786	0.0151491
756.864	0.0151725
756.943	0.0152677
757.021	0.0151914
757.099	0.0152325
757.177	0.0150983
757.255	0.0152338
757.333	0.0152440
757.411	0.0152000
757.489	0.0151800
757.568	0.0153331
757.646	0.0153970
757.724	0.0152925
757.802	0.0151906
757.880	0.0152394
757.958	0.0151585
758.036	0.0152027
758.114	0.0151211
758.193	0.0152271
758.271	0.0151043
758.349	0.0150299
758.427	0.0150203
758.505	0.0151528
758.583	0.0151819
758.661	0.0151514
758.739	0.0150346
758.818	0.0151327
758.896	0.0150649
758.974	0.0151117
759.052	0.0149936
759.130	0.0149895
759.208	0.0150884
759.286	0.0152244
759.364	0.0152622
759.443	0.0150417
759.521	0.0151606
759.599	0.0151527
759.677	0.0151146
759.755	0.0151319
759.833	0.0150595
759.911	0.0151807
759.989	0.0151472
760.068	0.0152461
760.146	0.0151378
760.224	0.0151280
760.302	0.0150989
760.380	0.0151432
760.458	0.0151432
760.536	0.0149217
760.614	0.0149807
760.693	0.0151686
760.771	0.0150949
760.849	0.0149963
760.927	0.0151065
761.005	0.0152287
761.083	0.0151420
761.161	0.0149891
761.239	0.0150379
761.318	0.0150671
761.396	0.0151571
761.474	0.0149869
761.552	0.0151187
761.630	0.0151940
761.708	0.0152213
761.786	0.0151588
761.864	0.0150003
761.943	0.0152515
762.021	0.0153328
762.099	0.0152554
762.177	0.0152000
762.255	0.0152357
762.333	0.0151364
762.411	0.0150925
762.489	0.0151623
762.568	0.0152923
762.646	0.0150716
762.724	0.0150933
762.802	0.0149662
762.880	0.0151278
762.958	0.0149637
763.036	0.0150409
763.114	0.0150766
763.193	0.0151101
763.271	0.0150628
763.349	0.0149986
763.427	0.0150221
763.505	0.0150452
763.583	0.0150655
763.661	0.0149643
763.739	0.0151498
763.818	0.0151379
763.896	0.0152173
763.974	0.0152392
764.052	0.0151771
764.130	0.0151602
764.208	0.0152554
764.286	0.0153701
764.364	0.0151986
764.443	0.0151604
764.521	0.0150226
764.599	0.0151126
764.677	0.0152185
764.755	0.0150623
764.833	0.0151761
764.911	0.0151618
764.989	0.0151405
765.068	0.0150260
765.146	0.0150980
765.224	0.0151454
765.302	0.0149800
765.380	0.0149253
765.458	0.0150142
765.536	0.0151493
765.614	0.0149851
765.693	0.0149072
765.771	0.0150240
765.849	0.0150469
765.927	0.0149974
766.005	0.0149294
766.083	0.0150408
766.161	0.0151079
766.239	0.0150782
766.318	0.0151393
766.396	0.0149856
766.474	0.0150309
766.552	0.0151121
766.630	0.0151714
766.708	0.0151160
766.786	0.0150768
766.864	0.0151562
766.943	0.0150440
767.021	0.0150349
767.099	0.0150887
767.177	0.0150672
767.255	0.0150420
767.333	0.0150546
767.411	0.0151499
767.489	0.0151757
767.568	0.0151612
767.646	0.0151930
767.724	0.0152132
767.802	0.0150753
767.880	0.0152631
767.958	0.0151180
768.036	0.0150996
768.114	0.0151713
768.193	0.0152330
768.271	0.0151578
768.349	0.0151845
768.427	0.0152693
768.505	0.0152827
768.583	0.0151005
768.661	0.0150607
768.739	0.0149701
768.818	0.0151044
768.896	0.0150870
768.974	0.0150888
769.052	0.0150788
769.130	0.0150652
769.208	0.0151554
769.286	0.0149784
769.364	0.0151507
769.443	0.0151513
769.521	0.0149609
769.599	0.0151582
769.677	0.0151468
769.755	0.0152076
769.833	0.0153643
769.911	0.0151791
769.989	0.0150975
770.068	0.0152081
770.146	0.0152608
770.224	0.0153101
770.302	0.0152152
770.380	0.0151214
770.458	0.0152878
770.536	0.0152361
770.614	0.0150524
770.693	0.0149956
770.771	0.0149128
770.849	0.0150558
770.927	0.0149335
771.005	0.0149935
771.083	0.0150711
771.161	0.0150110
771.239	0.0151509
771.318	0.0150675
771.396	0.0150713
771.474	0.0151265
771.552	0.0150405
771.630	0.0152069
771.708	0.0150095
771.786	0.0150894
771.864	0.0152026
771.943	0.0151864
772.021	0.0151206
772.099	0.0151628
772.177	0.0150993
772.255	0.0151281
772.333	0.0153040
772.411	0.0152824
772.489	0.0152551
772.568	0.0153262
772.646	0.0151355
772.724	0.0150409
772.802	0.0150808
772.880	0.0151937
772.958	0.0151833
773.036	0.0151997
773.114	0.0150930
773.193	0.0150677
773.271	0.0151225
773.349	0.0149984
773.427	0.0151149
773.505	0.0151141
773.583	0.0151024
773.661	0.0150235
773.739	0.0152025
773.818	0.0153233
773.896	0.0152721
773.974	0.0151339
774.052	0.0151244
774.130	0.0152133
774.208	0.0150932
774.286	0.0151133
774.364	0.0149933
774.443	0.0151807
774.521	0.0150561
774.599	0.0151583
774.677	0.0151162
774.755	0.0149673
774.833	0.0151146
774.911	0.0151347
774.989	0.0151646
775.068	0.0151025
775.146	0.0151283
775.224	0.0153110
775.302	0.0152910
775.380	0.0151385
775.458	0.0153172
775.536	0.0152400
775.614	0.0151788
775.693	0.0153186
775.771	0.0154738
775.849	0.0153264
775.927	0.0152844
776.005	0.0152545
776.083	0.0152275
776.161	0.0153412
776.239	0.0151397
776.318	0.0152224
776.396	0.0149583
776.474	0.0150224
776.552	0.0151781
776.630	0.0151055
776.708	0.0150325
776.786	0.0150975
776.864	0.0151054
776.943	0.0149737
777.021	0.0148922
777.099	0.0149973
777.177	0.0151783
777.255	0.0152271
777.333	0.0150459
777.411	0.0151778
777.489	0.0151702
777.568	0.0152142
777.646	0.0152020
777.724	0.0152586
777.802	0.0152614
777.880	0.0151712
777.958	0.0152004
778.036	0.0152701
778.114	0.0153597
778.193	0.0151939
778.271	0.0152279
778.349	0.0152126
778.427	0.0151299
778.505	0.0151318
778.583	0.0151989
778.661	0.0151637
778.739	0.0152534
778.818	0.0150095
778.896	0.0150336
778.974	0.0151388
779.052	0.0150216
779.130	0.0151764
779.208	0.0151467
779.286	0.0151563
779.364	0.0151196
779.443	0.0152256
779.521	0.0151811
779.599	0.0152019
779.677	0.0151921
779.755	0.0152065
779.833	0.0152266
779.911	0.0152641
779.989	0.0152650
780.068	0.0153992
780.146	0.0152782
780.224	0.0153691
780.302	0.0150956
780.380	0.0152558
780.458	0.0151652
780.536	0.0151955
780.614	0.0151609
780.693	0.0150623
780.771	0.0152434
780.849	0.0152858
780.927	0.0151276
781.005	0.0151221
781.083	0.0151447
781.161	0.0150485
781.239	0.0150080
781.318	0.0151093
781.396	0.0151503
781.474	0.0152626
781.552	0.0151821
781.630	0.0150591
781.708	0.0151312
781.786	0.0150021
781.864	0.0150864
781.943	0.0151039
782.021	0.0149951
782.099	0.0151313
782.177	0.0150902
782.255	0.0151095
782.333	0.0151667
782.411	0.0152512
782.489	0.0151627
782.568	0.0151676
782.646	0.0152326
782.724	0.0152690
782.802	0.0151903
782.880	0.0151614
782.958	0.0150351
783.036	0.0152270
783.114	0.0150874
783.193	0.0150730
783.271	0.0152277
783.349	0.0151930
783.427	0.0151498
783.505	0.0151861
783.583	0.0151848
783.661	0.0150640
783.739	0.0152254
783.818	0.0151624
783.896	0.0152549
783.974	0.0153716
784.052	0.0152745
784.130	0.0152594
784.208	0.0151414
784.286	0.0151065
784.364	0.0151272
784.443	0.0150491
784.521	0.0151299
784.599	0.0151458
784.677	0.0152190
784.755	0.0151678
784.833	0.0151377
784.911	0.0151653
784.989	0.0149809
785.068	0.0150212
785.146	0.0149722
785.224	0.0150135
785.302	0.0150515
785.380	0.0150636
785.458	0.0151666
785.536	0.0152453
785.614	0.0152290
785.693	0.0153175
785.771	0.0153420
785.849	0.0152448
785.927	0.0152579
786.005	0.0151613
786.083	0.0151224
786.161	0.0152550
786.239	0.0152917
786.318	0.0151032
786.396	0.0152309
786.474	0.0151283
786.552	0.0151407
786.630	0.0151566
786.708	0.0151180
786.786	0.0150642
786.864	0.0149457
786.943	0.0151762
787.021	0.0149850
787.099	0.0149665
787.177	0.0150862
787.255	0.0151395
787.333	0.0150567
787.411	0.0150232
787.489	0.0151802
787.568	0.0151095
787.646	0.0150715
787.724	0.0151480
787.802	0.0152290
787.880	0.0152483
787.958	0.0151328
788.036	0.0152643
788.114	0.0151592
788.193	0.0152434
788.271	0.0151144
788.349	0.0152665
788.427	0.0151082
788.505	0.0151442
788.583	0.0152205
788.661	0.0150524
788.739	0.0151947
788.818	0.0150542
788.896	0.0150578
788.974	0.0151103
789.052	0.0151172
789.130	0.0151256
789.208	0.0151763
789.286	0.0150539
789.364	0.0151752
789.443	0.0150952
789.521	0.0151054
789.599	0.0150992
789.677	0.0151481
789.755	0.0150653
789.833	0.0150448
789.911	0.0150775
789.989	0.0150591
790.068	0.0150744
790.146	0.0151532
790.224	0.0153236
790.302	0.0151376
790.380	0.0150546
790.458	0.0152174
790.536	0.0151761
790.614	0.0149489
790.693	0.0150776
790.771	0.0151640
790.849	0.0151987
790.927	0.0151098
791.005	0.0152167
791.083	0.0151519
791.161	0.0152030
791.239	0.0151547
791.318	0.0150517
791.396	0.0150594
791.474	0.0151441
791.552	0.0151690
791.630	0.0152467
791.708	0.0151181
791.786	0.0150701
791.864	0.0151672
791.943	0.0151480
792.021	0.0151776
792.099	0.0150426
792.177	0.0150590
792.255	0.0151385
792.333	0.0149268
792.411	0.0151203
792.489	0.0150193
792.568	0.0151292
792.646	0.0151526
792.724	0.0151035
792.802	0.0150856
792.880	0.0150512
792.958	0.0150381
793.036	0.0150512
793.114	0.0152061
793.193	0.0151568
793.271	0.0151109
793.349	0.0151316
793.427	0.0152048
793.505	0.0153197
793.583	0.0152786
793.661	0.0153088
793.739	0.0152429
793.818	0.0152585
793.896	0.0151920
793.974	0.0152250
794.052	0.0153722
794.130	0.0152056
794.208	0.0151750
794.286	0.0150683
794.364	0.0151660
794.443	0.0150156
794.521	0.0151499
794.599	0.0150862
794.677	0.0151572
794.755	0.0151438
794.833	0.0151981
794.911	0.0150474
794.989	0.0152013
795.068	0.0150768
795.146	0.0150662
795.224	0.0151880
795.302	0.0150637
795.380	0.0150777
795.458	0.0151168
795.536	0.0151670
795.614	0.0152316
795.693	0.0150928
795.771	0.0150933
795.849	0.0151718
795.927	0.0152232
796.005	0.0152244
796.083	0.0150922
796.161	0.0152652
796.239	0.0151541
796.318	0.0151208
796.396	0.0151208
796.474	0.0151323
796.552	0.0151697
796.630	0.0151899
796.708	0.0150819
796.786	0.0150496
796.864	0.0151669
796.943	0.0151073
797.021	0.0152098
797.099	0.0152643
797.177	0.0150669
797.255	0.0151486
797.333	0.0151804
797.411	0.0150126
797.489	0.0150822
797.568	0.0152687
797.646	0.0152242
797.724	0.0151826
797.802	0.0151202
797.880	0.0150896
797.958	0.0151511
798.036	0.0151360
798.114	0.0149987
798.193	0.0152940
798.271	0.0150475
798.349	0.0150389
798.427	0.0151453
798.505	0.0150010
798.583	0.0151442
798.661	0.0151031
798.739	0.0150189
798.818	0.0151803
798.896	0.0152230
798.974	0.0152402
799.052	0.0152680
799.130	0.0151810
799.208	0.0153364
799.286	0.0153040
799.364	0.0152528
799.443	0.0150919
799.521	0.0150373
799.599	0.0151740
799.677	0.0151517
799.755	0.0152265
799.833	0.0152895
799.911	0.0151204
799.989	0.0152495
800.068	0.0151413
800.146	0.0151045
800.224	0.0151099
800.302	0.0151976
800.380	0.0151541
800.458	0.0151065
800.536	0.0152817
800.614	0.0151199
800.693	0.0150121
800.771	0.0151556
800.849	0.0151250
800.927	0.0150469
801.005	0.0151169
801.083	0.0151735
801.161	0.0151920
801.239	0.0151391
801.318	0.0150626
801.396	0.0153509
801.474	0.0152166
801.552	0.0151778
801.630	0.0152960
801.708	0.0150599
801.786	0.0151989
801.864	0.0151572
801.943	0.0151833
802.021	0.0152057
802.099	0.0151196
802.177	0.0150005
802.255	0.0151738
802.333	0.0152206
802.411	0.0151218
802.489	0.0152366
802.568	0.0151206
802.646	0.0150115
802.724	0.0149005
802.802	0.0150857
802.880	0.0151333
802.958	0.0150659
803.036	0.0152396
803.114	0.0150905
803.193	0.0151826
803.271	0.0151683
803.349	0.0150578
803.427	0.0151260
803.505	0.0152243
803.583	0.0151086
803.661	0.0151427
803.739	0.0150127
803.818	0.0151645
803.896	0.0151775
803.974	0.0151403
804.052	0.0151817
804.130	0.0150123
804.208	0.0152240
804.286	0.0151598
804.364	0.0152444
804.443	0.0150574
804.521	0.0151080
804.599	0.0151814
804.677	0.0151540
804.755	0.0152305
804.833	0.0150543
804.911	0.0150432
804.989	0.0151195
805.068	0.0150523
805.146	0.0150969
805.224	0.0151548
805.302	0.0150115
805.380	0.0151704
805.458	0.0150650
805.536	0.0150784
805.614	0.0150379
805.693	0.0152095
805.771	0.0150050
805.849	0.0150922
805.927	0.0151724
806.005	0.0150372
806.083	0.0151577
806.161	0.0151306
806.239	0.0151564
806.318	0.0151730
806.396	0.0153517
806.474	0.0152592
806.552	0.0151888
806.630	0.0150034
806.708	0.0151935
806.786	0.0151294
806.864	0.0152283
806.943	0.0152068
807.021	0.0151913
807.099	0.0150681
807.177	0.0151172
807.255	0.0151526
807.333	0.0151202
807.411	0.0152338
807.489	0.0151539
807.568	0.0151727
807.646	0.0151711
807.724	0.0152248
807.802	0.0151568
807.880	0.0151894
807.958	0.0151355
808.036	0.0150657
808.114	0.0153227
808.193	0.0152226
808.271	0.0152705
808.349	0.0152908
808.427	0.0152089
808.505	0.0152260
808.583	0.0151795
808.661	0.0152042
808.739	0.0151211
808.818	0.0150162
808.896	0.0151450
808.974	0.0151381
809.052	0.0150845
809.130	0.0150961
809.208	0.0150681
809.286	0.0151326
809.364	0.0150264
809.443	0.0151086
809.521	0.0151357
809.599	0.0150905
809.677	0.0150497
809.755	0.0152796
809.833	0.0151669
809.911	0.0152037
809.989	0.0153076
810.068	0.0153264
810.146	0.0152148
810.224	0.0152316
810.302	0.0151702
810.380	0.0151691
810.458	0.0152716
810.536	0.0152554
810.614	0.0151508
810.693	0.0153278
810.771	0.0151002
810.849	0.0150002
810.927	0.0150997
811.005	0.0150584
811.083	0.0150868
811.161	0.0152815
811.239	0.0150269
811.318	0.0150900
811.396	0.0151170
811.474	0.0149818
811.552	0.0150657
811.630	0.0150709
811.708	0.0151630
811.786	0.0152431
811.864	0.0151892
811.943	0.0151838
812.021	0.0151331
812.099	0.0152716
812.177	0.0152254
812.255	0.0152494
812.333	0.0152274
812.411	0.0152317
812.489	0.0152388
812.568	0.0153521
812.646	0.0153560
812.724	0.0151469
812.802	0.0151856
812.880	0.0151630
812.958	0.0151604
813.036	0.0150421
813.114	0.0150211
813.193	0.0150903
813.271	0.0150755
813.349	0.0151429
813.427	0.0151137
813.505	0.0149815
813.583	0.0149757
813.661	0.0149642
813.739	0.0151637
813.818	0.0150974
813.896	0.0151471
813.974	0.0152346
814.052	0.0151263
814.130	0.0152753
814.208	0.0152669
814.286	0.0152940
814.364	0.0151598
814.443	0.0151927
814.521	0.0152402
814.599	0.0152625
814.677	0.0153220
814.755	0.0152637
814.833	0.0151332
814.911	0.0150687
814.989	0.0149213
815.068	0.0150771
815.146	0.0150940
815.224	0.0150986
815.302	0.0150577
815.380	0.0149685
815.458	0.0149689
815.536	0.0151086
815.614	0.0151143
815.693	0.0151191
815.771	0.0150972
815.849	0.0150796
815.927	0.0149879
816.005	0.0150266
816.083	0.0149780
816.161	0.0152227
816.239	0.0151962
816.318	0.0151541
816.396	0.0148919
816.474	0.0149591
816.552	0.0151116
816.630	0.0150863
816.708	0.0149739
816.786	0.0149515
816.864	0.0151138
816.943	0.0149846
817.021	0.0150346
817.099	0.0150743
817.177	0.0150340
817.255	0.0151028
817.333	0.0149408
817.411	0.0148360
817.489	0.0149773
817.568	0.0152787
817.646	0.0151305
817.724	0.0151334
817.802	0.0151685
817.880	0.0151986
817.958	0.0151160
818.036	0.0151532
818.114	0.0152642
818.193	0.0152201
818.271	0.0152020
818.349	0.0153697
818.427	0.0152635
818.505	0.0150909
818.583	0.0152177
818.661	0.0152518
818.739	0.0151654
818.818	0.0151714
818.896	0.0151316
818.974	0.0152341
819.052	0.0151255
819.130	0.0151534
819.208	0.0151196
819.286	0.0151672
819.364	0.0152374
819.443	0.0151432
819.521	0.0151567
819.599	0.0152254
819.677	0.0151767
819.755	0.0152659
819.833	0.0152124
819.911	0.0151109
819.989	0.0152746
820.068	0.0152825
820.146	0.0152859
820.224	0.0152425
820.302	0.0151482
820.380	0.0150892
820.458	0.0153308
820.536	0.0151461
820.614	0.0151427
820.693	0.0151173
820.771	0.0152169
820.849	0.0151276
820.927	0.0151967
821.005	0.0149898
821.083	0.0151327
821.161	0.0151241
821.239	0.0150713
821.318	0.0151151
821.396	0.0151406
821.474	0.0152370
821.552	0.0150881
821.630	0.0149366
821.708	0.0150218
821.786	0.0151379
821.864	0.0150388
821.943	0.0150799
822.021	0.0149751
822.099	0.0149176
822.177	0.0149209
822.255	0.0150391
822.333	0.0149755
822.411	0.0150462
822.489	0.0151250
822.568	0.0150449
822.646	0.0150320
822.724	0.0151180
822.802	0.0149830
822.880	0.0149982
822.958	0.0149954
823.036	0.0150909
823.114	0.0149916
823.193	0.0149114
823.271	0.0150130
823.349	0.0150606
823.427	0.0150906
823.505	0.0150510
823.583	0.0152828
823.661	0.0151846
823.739	0.0151122
823.818	0.0151670
823.896	0.0152295
823.974	0.0151999
824.052	0.0151014
824.130	0.0150792
824.208	0.0152021
824.286	0.0152415
824.364	0.0153489
824.443	0.0151570
824.521	0.0152124
824.599	0.0152173
824.677	0.0151709
824.755	0.0152425
824.833	0.0152850
824.911	0.0152615
824.989	0.0152349
825.068	0.0154621
825.146	0.0153236
825.224	0.0152690
825.302	0.0152072
825.380	0.0151080
825.458	0.0153333
825.536	0.0152370
825.614	0.0152808
825.693	0.0152141
825.771	0.0150285
825.849	0.0151343
825.927	0.0151718
826.005	0.0150367
826.083	0.0151791
826.161	0.0152920
826.239	0.0150742
826.318	0.0149937
826.396	0.0151025
826.474	0.0151558
826.552	0.0150352
826.630	0.0150014
826.708	0.0150339
826.786	0.0149290
826.864	0.0150340
826.943	0.0149330
827.021	0.0148908
827.099	0.0150023
827.177	0.0149126
827.255	0.0150885
827.333	0.0149551
827.411	0.0149258
827.489	0.0150096
827.568	0.0149929
827.646	0.0148848
827.724	0.0151126
827.802	0.0150581
827.880	0.0149245
827.958	0.0151123
828.036	0.0150937
828.114	0.0148853
828.193	0.0150138
828.271	0.0151551
828.349	0.0150956
828.427	0.0151114
828.505	0.0150996
828.583	0.0150948
828.661	0.0151067
828.739	0.0150595
828.818	0.0150639
828.896	0.0150775
828.974	0.0150567
829.052	0.0150183
829.130	0.0151266
829.208	0.0151827
829.286	0.0151794
829.364	0.0151879
829.443	0.0151652
829.521	0.0151621
829.599	0.0151311
829.677	0.0151282
829.755	0.0152506
829.833	0.0152161
829.911	0.0151535
829.989	0.0150835
830.068	0.0151299
830.146	0.0152678
830.224	0.0152504
830.302	0.0152039
830.380	0.0152594
830.458	0.0152516
830.536	0.0152554
830.614	0.0152975
830.693	0.0153059
830.771	0.0152487
830.849	0.0153588
830.927	0.0152547
831.005	0.0153137
831.083	0.0152860
831.161	0.0150806
831.239	0.0152077
831.318	0.0150967
831.396	0.0151833
831.474	0.0151145
831.552	0.0150513
831.630	0.0151913
831.708	0.0151552
831.786	0.0150690
831.864	0.0150500
831.943	0.0148723
832.021	0.0150043
832.099	0.0150880
832.177	0.0150130
832.255	0.0149660
832.333	0.0150590
832.411	0.0149622
832.489	0.0149829
832.568	0.0150173
832.646	0.0149433
832.724	0.0150323
832.802	0.0149757
832.880	0.0149871
832.958	0.0148992
833.036	0.0149300
833.114	0.0149172
833.193	0.0149970
833.271	0.0148489
833.349	0.0148301
833.427	0.0150273
833.505	0.0149706
833.583	0.0148758
833.661	0.0149594
833.739	0.0150155
833.818	0.0151011
833.896	0.0150008
833.974	0.0149557
834.052	0.0150475
834.130	0.0149823
834.208	0.0150124
834.286	0.0151176
834.364	0.0151529
834.443	0.0152386
834.521	0.0150966
834.599	0.0151413
834.677	0.0151350
834.755	0.0151031
834.833	0.0151497
834.911	0.0152072
834.989	0.0152249
835.068	0.0153322
835.146	0.0152169
835.224	0.0152811
835.302	0.0151397
835.380	0.0151527
835.458	0.0151546
835.536	0.0151659
835.614	0.0151721
835.693	0.0151860
835.771	0.0152131
835.849	0.0151470
835.927	0.0152364
836.005	0.0152663
836.083	0.0152499
836.161	0.0152615
836.239	0.0152331
836.318	0.0151925
836.396	0.0152901
836.474	0.0153820
836.552	0.0152731
836.630	0.0151800
836.708	0.0151649
836.786	0.0151186
836.864	0.0151565
836.943	0.0152010
837.021	0.0151626
837.099	0.0151091
837.177	0.0150293
837.255	0.0150098
837.333	0.0151144
837.411	0.0149572
837.489	0.0149966
837.568	0.0151549
837.646	0.0151186
837.724	0.0150365
837.802	0.0150391
837.880	0.0150513
837.958	0.0151508
838.036	0.0150461
838.114	0.0149471
838.193	0.0149234
838.271	0.0150637
838.349	0.0150044
838.427	0.0151188
838.505	0.0150502
838.583	0.0150783
838.661	0.0151217
838.739	0.0151344
838.818	0.0152484
838.896	0.0150646
838.974	0.0152245
839.052	0.0151459
839.130	0.0151782
839.208	0.0151428
839.286	0.0150407
839.364	0.0152113
839.443	0.0150935
839.521	0.0150687
839.599	0.0150313
839.677	0.0151859
839.755	0.0151419
839.833	0.0152151
839.911	0.0151840
839.989	0.0152348
840.068	0.0152722
840.146	0.0151478
840.224	0.0151845
840.302	0.0152506
840.380	0.0152528
840.458	0.0152436
840.536	0.0151805
840.614	0.0152653
840.693	0.0152660
840.771	0.0150774
840.849	0.0151595
840.927	0.0151688
841.005	0.0151223
841.083	0.0151727
841.161	0.0151894
841.239	0.0152277
841.318	0.0152122
841.396	0.0151860
841.474	0.0152061
841.552	0.0151511
841.630	0.0152455
841.708	0.0151698
841.786	0.0151730
841.864	0.0150530
841.943	0.0152447
842.021	0.0152489
842.099	0.0151416
842.177	0.0150661
842.255	0.0151673
842.333	0.0151330
842.411	0.0151537
842.489	0.0151614
842.568	0.0151079
842.646	0.0152751
842.724	0.0152980
842.802	0.0151002
842.880	0.0152569
842.958	0.0151521
843.036	0.0151581
843.114	0.0152303
843.193	0.0151187
843.271	0.0152454
843.349	0.0151923
843.427	0.0150493
843.505	0.0149923
843.583	0.0151277
843.661	0.0151688
843.739	0.0150805
843.818	0.0150873
843.896	0.0151778
843.974	0.0152781
844.052	0.0150231
844.130	0.0151788
844.208	0.0150785
844.286	0.0150188
844.364	0.0150751
844.443	0.0151254
844.521	0.0152575
844.599	0.0150785
844.677	0.0152003
844.755	0.0151304
844.833	0.0149628
844.911	0.0151154
844.989	0.0151360
845.068	0.0152586
845.146	0.0150842
845.224	0.0151673
845.302	0.0151417
845.380	0.0151531
845.458	0.0151029
845.536	0.0151498
845.614	0.0151320
845.693	0.0151393
845.771	0.0151323
845.849	0.0151391
845.927	0.0150533
846.005	0.0151131
846.083	0.0152212
846.161	0.0152094
846.239	0.0152669
846.318	0.0151281
846.396	0.0151437
846.474	0.0151576
846.552	0.0152383
846.630	0.0150833
846.708	0.0152238
846.786	0.0153493
846.864	0.0151469
846.943	0.0151003
847.021	0.0152995
847.099	0.0151830
847.177	0.0151447
847.255	0.0150437
847.333	0.0151717
847.411	0.0151424
847.489	0.0152793
847.568	0.0152061
847.646	0.0151096
847.724	0.0150948
847.802	0.0153082
847.880	0.0150976
847.958	0.0152118
848.036	0.0151634
848.114	0.0152863
848.193	0.0153230
848.271	0.0152210
848.349	0.0152437
848.427	0.0151380
848.505	0.0152704
848.583	0.0151109
848.661	0.0151958
848.739	0.0152238
848.818	0.0151235
848.896	0.0152773
848.974	0.0151614
849.052	0.0151415
849.130	0.0151418
849.208	0.0153873
849.286	0.0151720
849.364	0.0152739
849.443	0.0153023
849.521	0.0150951
849.599	0.0152266
849.677	0.0152319
849.755	0.0152657
849.833	0.0152261
849.911	0.0151060
849.989	0.0150026
850.068	0.0151958
850.146	0.0152494
850.224	0.0152261
850.302	0.0151719
850.380	0.0150316
850.458	0.0152027
850.536	0.0152062
850.614	0.0152102
850.693	0.0151942
850.771	0.0152984
850.849	0.0152158
850.927	0.0152699
851.005	0.0151549
851.083	0.0152353
851.161	0.0151936
851.239	0.0150926
851.318	0.0151112
851.396	0.0153090
851.474	0.0151501
851.552	0.0151272
851.630	0.0151326
851.708	0.0150665
851.786	0.0150580
851.864	0.0152417
851.943	0.0152253
852.021	0.0149438
852.099	0.0149837
852.177	0.0152193
852.255	0.0152879
852.333	0.0151934
852.411	0.0150600
852.489	0.0149715
852.568	0.0150169
852.646	0.0151182
852.724	0.0151319
852.802	0.0150834
852.880	0.0150821
852.958	0.0149228
853.036	0.0150974
853.114	0.0150675
853.193	0.0149786
853.271	0.0151397
853.349	0.0151478
853.427	0.0151043
853.505	0.0151743
853.583	0.0150991
853.661	0.0150519
853.739	0.0151315
853.818	0.0149664
853.896	0.0150763
853.974	0.0151046
854.052	0.0150831
854.130	0.0150675
854.208	0.0151881
854.286	0.0151764
854.364	0.0150555
854.443	0.0149537
854.521	0.0151744
854.599	0.0151357
854.677	0.0151285
854.755	0.0151179
854.833	0.0151881
854.911	0.0151943
854.989	0.0151479
855.068	0.0151415
855.146	0.0151350
855.224	0.0152396
855.302	0.0151801
855.380	0.0152934
855.458	0.0152060
855.536	0.0152478
855.614	0.0151781
855.693	0.0152878
855.771	0.0152668
855.849	0.0153207
855.927	0.0151573
856.005	0.0153506
856.083	0.0153439
856.161	0.0152320
856.239	0.0153266
856.318	0.0151934
856.396	0.0153383
856.474	0.0152982
856.552	0.0153069
856.630	0.0153426
856.708	0.0151654
856.786	0.0151492
856.864	0.0151395
856.943	0.0151804
857.021	0.0152742
857.099	0.0152293
857.177	0.0151978
857.255	0.0152814
857.333	0.0151263
857.411	0.0152678
857.489	0.0151794
857.568	0.0152051
857.646	0.0151894
857.724	0.0151896
857.802	0.0151357
857.880	0.0151307
857.958	0.0151551
858.036	0.0149472
858.114	0.0150307
858.193	0.0150001
858.271	0.0150493
858.349	0.0151579
858.427	0.0149966
858.505	0.0149117
858.583	0.0149191
858.661	0.0150817
858.739	0.0149896
858.818	0.0151150
858.896	0.0148547
858.974	0.0149235
859.052	0.0150410
859.130	0.0149156
859.208	0.0150000
859.286	0.0149007
859.364	0.0150851
859.443	0.0150014
859.521	0.0150229
859.599	0.0151271
859.677	0.0150144
859.755	0.0150202
859.833	0.0150239
859.911	0.0151206
859.989	0.0151555
860.068	0.0151669
860.146	0.0151861
860.224	0.0152071
860.302	0.0152843
860.380	0.0152660
860.458	0.0152962
860.536	0.0152277
860.614	0.0153362
860.693	0.0152311
860.771	0.0152511
860.849	0.0153477
860.927	0.0154678
861.005	0.0153511
861.083	0.0151691
861.161	0.0152448
861.239	0.0153296
861.318	0.0153536
861.396	0.0153053
861.474	0.0153431
861.552	0.0153177
861.630	0.0153814
861.708	0.0152821
861.786	0.0152743
861.864	0.0152975
861.943	0.0152303
862.021	0.0152561
862.099	0.0152731
862.177	0.0152710
862.255	0.0153404
862.333	0.0152943
862.411	0.0152348
862.489	0.0152812
862.568	0.0152357
862.646	0.0151586
862.724	0.0152549
862.802	0.0152555
862.880	0.0152366
862.958	0.0152292
863.036	0.0152534
863.114	0.0152721
863.193	0.0151562
863.271	0.0151611
863.349	0.0151300
863.427	0.0151790
863.505	0.0150137
863.583	0.0150292
863.661	0.0151585
863.739	0.0149760
863.818	0.0150667
863.896	0.0151955
863.974	0.0149771
864.052	0.0149046
864.130	0.0151014
864.208	0.0150187
864.286	0.0149554
864.364	0.0150572
864.443	0.0149776
864.521	0.0149665
864.599	0.0150230
864.677	0.0148752
864.755	0.0150042
864.833	0.0149561
864.911	0.0150632
864.989	0.0150535
865.068	0.0149116
865.146	0.0149757
865.224	0.0150089
865.302	0.0151524
865.380	0.0149567
865.458	0.0149733
865.536	0.0151312
865.614	0.0150325
865.693	0.0149822
865.771	0.0150258
865.849	0.0150023
865.927	0.0150311
866.005	0.0150252
866.083	0.0150185
866.161	0.0150709
866.239	0.0150525
866.318	0.0151231
866.396	0.0151904
866.474	0.0151336
866.552	0.0152300
866.630	0.0152080
866.708	0.0151370
866.786	0.0150877
866.864	0.0151661
866.943	0.0150990
867.021	0.0151606
867.099	0.0149789
867.177	0.0152424
867.255	0.0153493
867.333	0.0152812
867.411	0.0152049
867.489	0.0152965
867.568	0.0152020
867.646	0.0152333
867.724	0.0153856
867.802	0.0153399
867.880	0.0152691
867.958	0.0152657
868.036	0.0152794
868.114	0.0152534
868.193	0.0152368
868.271	0.0151784
868.349	0.0153715
868.427	0.0154805
868.505	0.0151865
868.583	0.0152187
868.661	0.0153382
868.739	0.0151746
868.818	0.0152585
868.896	0.0152312
868.974	0.0151888
869.052	0.0152209
869.130	0.0152045
869.208	0.0151910
869.286	0.0151080
869.364	0.0150816
869.443	0.0152820
869.521	0.0150716
869.599	0.0151503
869.677	0.0153133
869.755	0.0151817
869.833	0.0151083
869.911	0.0151199
869.989	0.0150523
870.068	0.0150578
870.146	0.0150983
870.224	0.0151378
870.302	0.0151884
870.380	0.0151016
870.458	0.0149798
870.536	0.0150649
870.614	0.0150587
870.693	0.0150294
870.771	0.0149925
870.849	0.0150094
870.927	0.0150090
871.005	0.0150928
871.083	0.0150269
871.161	0.0149940
871.239	0.0149656
871.318	0.0150169
871.396	0.0151368
871.474	0.0150670
871.552	0.0150927
871.630	0.0151086
871.708	0.0150167
871.786	0.0151212
871.864	0.0151295
871.943	0.0151281
872.021	0.0151477
872.099	0.0150934
872.177	0.0151415
872.255	0.0152750
872.333	0.0153207
872.411	0.0150121
872.489	0.0150909
872.568	0.0151820
872.646	0.0152012
872.724	0.0152847
872.802	0.0152164
872.880	0.0152550
872.958	0.0151859
873.036	0.0153227
873.114	0.0152081
873.193	0.0152013
873.271	0.0152243
873.349	0.0151546
873.427	0.0152647
873.505	0.0152791
873.583	0.0152248
873.661	0.0153030
873.739	0.0152818
873.818	0.0152496
873.896	0.0152872
873.974	0.0153294
874.052	0.0153542
874.130	0.0154526
874.208	0.0152892
874.286	0.0153812
874.364	0.0153077
874.443	0.0153239
874.521	0.0152904
874.599	0.0153045
874.677	0.0152257
874.755	0.0152566
874.833	0.0152379
874.911	0.0152740
874.989	0.0152879
875.068	0.0152138
875.146	0.0151401
875.224	0.0151553
875.302	0.0150848
875.380	0.0151304
875.458	0.0150551
875.536	0.0151695
875.614	0.0151560
875.693	0.0152236
875.771	0.0150710
875.849	0.0152158
875.927	0.0152164
876.005	0.0152460
876.083	0.0152094
876.161	0.0153690
876.239	0.0152306
876.318	0.0151156
876.396	0.0152641
876.474	0.0152923
876.552	0.0152200
876.630	0.0153351
876.708	0.0152876
876.786	0.0150598
876.864	0.0151784
876.943	0.0152071
877.021	0.0151022
877.099	0.0151715
877.177	0.0151783
877.255	0.0152554
877.333	0.0152749
877.411	0.0151595
877.489	0.0152005
877.568	0.0151306
877.646	0.0152330
877.724	0.0151740
877.802	0.0151526
877.880	0.0152457
877.958	0.0151029
878.036	0.0151270
878.114	0.0151365
878.193	0.0151820
878.271	0.0150822
878.349	0.0151968
878.427	0.0152210
878.505	0.0151457
878.583	0.0151700
878.661	0.0151273
878.739	0.0151331
878.818	0.0153872
878.896	0.0152027
878.974	0.0150192
879.052	0.0150839
879.130	0.0152181
879.208	0.0151003
879.286	0.0151014
879.364	0.0151965
879.443	0.0151543
879.521	0.0150410
879.599	0.0151685
879.677	0.0152757
879.755	0.0151507
879.833	0.0152634
879.911	0.0151279
879.989	0.0152586
880.068	0.0151394
880.146	0.0152171
880.224	0.0152789
880.302	0.0152636
880.380	0.0151962
880.458	0.0153342
880.536	0.0151944
880.614	0.0153147
880.693	0.0151933
880.771	0.0152384
880.849	0.0154007
880.927	0.0152911
881.005	0.0152259
881.083	0.0153011
881.161	0.0151757
881.239	0.0152402
881.318	0.0153819
881.396	0.0152733
881.474	0.0152714
881.552	0.0153063
881.630	0.0151559
881.708	0.0153514
881.786	0.0152618
881.864	0.0153271
881.943	0.0153281
882.021	0.0151794
882.099	0.0152679
882.177	0.0152639
882.255	0.0151726
882.333	0.0151950
882.411	0.0151351
882.489	0.0152161
882.568	0.0151041
882.646	0.0150921
882.724	0.0152174
882.802	0.0149687
882.880	0.0150655
882.958	0.0149894
883.036	0.0148681
883.114	0.0149651
883.193	0.0151046
883.271	0.0150450
883.349	0.0148883
883.427	0.0150482
883.505	0.0151111
883.583	0.0151020
883.661	0.0149438
883.739	0.0150273
883.818	0.0150499
883.896	0.0152013
883.974	0.0150762
884.052	0.0150938
884.130	0.0150168
884.208	0.0151192
884.286	0.0151445
884.364	0.0151681
884.443	0.0151402
884.521	0.0151752
884.599	0.0150411
884.677	0.0151922
884.755	0.0150885
884.833	0.0150845
884.911	0.0152576
884.989	0.0152830
885.068	0.0151706
885.146	0.0151440
885.224	0.0151068
885.302	0.0151351
885.380	0.0151808
885.458	0.0150389
885.536	0.0151111
885.614	0.0151907
885.693	0.0152015
885.771	0.0151945
885.849	0.0151044
885.927	0.0151627
886.005	0.0151038
886.083	0.0151151
886.161	0.0151502
886.239	0.0150450
886.318	0.0149925
886.396	0.0150249
886.474	0.0151421
886.552	0.0151337
886.630	0.0150340
886.708	0.0151285
886.786	0.0150408
886.864	0.0150179
886.943	0.0150517
887.021	0.0149667
887.099	0.0152037
887.177	0.0149693
887.255	0.0150471
887.333	0.0149884
887.411	0.0150552
887.489	0.0149802
887.568	0.0149766
887.646	0.0151265
887.724	0.0151460
887.802	0.0150647
887.880	0.0150762
887.958	0.0149534
888.036	0.0150850
888.114	0.0151151
888.193	0.0151171
888.271	0.0151141
888.349	0.0151173
888.427	0.0152074
888.505	0.0152420
888.583	0.0150172
888.661	0.0150673
888.739	0.0151344
888.818	0.0151511
888.896	0.0151688
888.974	0.0150681
889.052	0.0150817
889.130	0.0151658
889.208	0.0150199
889.286	0.0150221
889.364	0.0151482
889.443	0.0150749
889.521	0.0150655
889.599	0.0151279
889.677	0.0151136
889.755	0.0149913
889.833	0.0148396
889.911	0.0151122
889.989	0.0150978
890.068	0.0150460
890.146	0.0150679
890.224	0.0151726
890.302	0.0150246
890.380	0.0150166
890.458	0.0150974
890.536	0.0150647
890.614	0.0150349
890.693	0.0151773
890.771	0.0151112
890.849	0.0150105
890.927	0.0150650
891.005	0.0150647
891.083	0.0150610
891.161	0.0150466
891.239	0.0151742
891.318	0.0150581
891.396	0.0150581
891.474	0.0150546
891.552	0.0150867
891.630	0.0151553
891.708	0.0150241
891.786	0.0152275
891.864	0.0149967
891.943	0.0152481
892.021	0.0151587
892.099	0.0151102
892.177	0.0151689
892.255	0.0151963
892.333	0.0152057
892.411	0.0152451
892.489	0.0152838
892.568	0.0151731
892.646	0.0150348
892.724	0.0150528
892.802	0.0151921
892.880	0.0152948
892.958	0.0151568
893.036	0.0151921
893.114	0.0151275
893.193	0.0150964
893.271	0.0150934
893.349	0.0152464
893.427	0.0150459
893.505	0.0149409
893.583	0.0150671
893.661	0.0150959
893.739	0.0149874
893.818	0.0150130
893.896	0.0150568
893.974	0.0151592
894.052	0.0149766
894.130	0.0149987
894.208	0.0149107
894.286	0.0149934
894.364	0.0150867
894.443	0.0150364
894.521	0.0150222
894.599	0.0150935
894.677	0.0150554
894.755	0.0149445
894.833	0.0150987
894.911	0.0150629
894.989	0.0150909
895.068	0.0150526
895.146	0.0149718
895.224	0.0151177
895.302	0.0149090
895.380	0.0150702
895.458	0.0151147
895.536	0.0151489
895.614	0.0149737
895.693	0.0150723
895.771	0.0151097
895.849	0.0151908
895.927	0.0151005
896.005	0.0150948
896.083	0.0152528
896.161	0.0152370
896.239	0.0152107
896.318	0.0151209
896.396	0.0151202
896.474	0.0151283
896.552	0.0151876
896.630	0.0152678
896.708	0.0151794
896.786	0.0152363
896.864	0.0153037
896.943	0.0151702
897.021	0.0153356
897.099	0.0151160
897.177	0.0151509
897.255	0.0151673
897.333	0.0152624
897.411	0.0152705
897.489	0.0152139
897.568	0.0150241
897.646	0.0152561
897.724	0.0153061
897.802	0.0151598
897.880	0.0152717
897.958	0.0152522
898.036	0.0151386
898.114	0.0150842
898.193	0.0152316
898.271	0.0152417
898.349	0.0152758
898.427	0.0151892
898.505	0.0151620
898.583	0.0152641
898.661	0.0151620
898.739	0.0152367
898.818	0.0152718
898.896	0.0153085
898.974	0.0151765
899.052	0.0151640
899.130	0.0151172
899.208	0.0152289
899.286	0.0152588
899.364	0.0152388
899.443	0.0151932
899.521	0.0150323
899.599	0.0151653
899.677	0.0152108
899.755	0.0152158
899.833	0.0151641
899.911	0.0152145
899.989	0.0151630
900.068	0.0151963
900.146	0.0151443
900.224	0.0150607
900.302	0.0153374
900.380	0.0152315
900.458	0.0152608
900.536	0.0151664
900.614	0.0150879
900.693	0.0152675
900.771	0.0152790
900.849	0.0151147
900.927	0.0151417
901.005	0.0151807
901.083	0.0152309
901.161	0.0151392
901.239	0.0151237
901.318	0.0152146
901.396	0.0151006
901.474	0.0151964
901.552	0.0151443
901.630	0.0152006
901.708	0.0151276
901.786	0.0151979
901.864	0.0152348
901.943	0.0150928
902.021	0.0150313
902.099	0.0151790
902.177	0.0152124
902.255	0.0152277
902.333	0.0151454
902.411	0.0151274
902.489	0.0151334
902.568	0.0151381
902.646	0.0151003
902.724	0.0150887
902.802	0.0150694
902.880	0.0150879
902.958	0.0150653
903.036	0.0150891
903.114	0.0151243
903.193	0.0151112
903.271	0.0151808
903.349	0.0149981
903.427	0.0149641
903.505	0.0149984
903.583	0.0150733
903.661	0.0151095
903.739	0.0151603
903.818	0.0151829
903.896	0.0151162
903.974	0.0151241
904.052	0.0150603
904.130	0.0150451
904.208	0.0152012
904.286	0.0150406
904.364	0.0150881
904.443	0.0149497
904.521	0.0152272
904.599	0.0152380
904.677	0.0151240
904.755	0.0152411
904.833	0.0152473
904.911	0.0151999
904.989	0.0152525
905.068	0.0151645
905.146	0.0151974
905.224	0.0152681
905.302	0.0151835
905.380	0.0153273
905.458	0.0151604
905.536	0.0151512
905.614	0.0151045
905.693	0.0151131
905.771	0.0151347
905.849	0.0152266
905.927	0.0149736
906.005	0.0150303
906.083	0.0150124
906.161	0.0149979
906.239	0.0150604
906.318	0.0150661
906.396	0.0149458
906.474	0.0149467
906.552	0.0148858
906.630	0.0149408
906.708	0.0149980
906.786	0.0150594
906.864	0.0150416
906.943	0.0149829
907.021	0.0151079
907.099	0.0152006
907.177	0.0151920
907.255	0.0152510
907.333	0.0151782
907.411	0.0154507
907.489	0.0153941
907.568	0.0151407
907.646	0.0152452
907.724	0.0153449
907.802	0.0152311
907.880	0.0150574
907.958	0.0150715
908.036	0.0152457
908.114	0.0149697
908.193	0.0150285
908.271	0.0149097
908.349	0.0147813
908.427	0.0148470
908.505	0.0149144
908.583	0.0150460
908.661	0.0150064
908.739	0.0149203
908.818	0.0150476
908.896	0.0151175
908.974	0.0150408
909.052	0.0150597
909.130	0.0151844
909.208	0.0151823
909.286	0.0153172
909.364	0.0152172
909.443	0.0152195
909.521	0.0151512
909.599	0.0150417
909.677	0.0151151
909.755	0.0152242
909.833	0.0150249
909.911	0.0150194
909.989	0.0151030
910.068	0.0150610
910.146	0.0148625
910.224	0.0148886
910.302	0.0149814
910.380	0.0149351
910.458	0.0149083
910.536	0.0150626
910.614	0.0151229
910.693	0.0149947
910.771	0.0149999
910.849	0.0150925
910.927	0.0150997
911.005	0.0149829
911.083	0.0150037
911.161	0.0150860
911.239	0.0151477
911.318	0.0150833
911.396	0.0151900
911.474	0.0151467
911.552	0.0152293
911.630	0.0150464
911.708	0.0152889
911.786	0.0152152
911.864	0.0150955
911.943	0.0150755
912.021	0.0150304
912.099	0.0153118
912.177	0.0151328
912.255	0.0152209
912.333	0.0150007
912.411	0.0150811
912.489	0.0149725
912.568	0.0152587
912.646	0.0151347
912.724	0.0152010
912.802	0.0151579
912.880	0.0150633
912.958	0.0151493
913.036	0.0151019
913.114	0.0152740
913.193	0.0150708
913.271	0.0152283
913.349	0.0152284
913.427	0.0152074
913.505	0.0149841
913.583	0.0150319
913.661	0.0151815
913.739	0.0152723
913.818	0.0151334
913.896	0.0151583
913.974	0.0151889
914.052	0.0151852
914.130	0.0150368
914.208	0.0149586
914.286	0.0151742
914.364	0.0151414
914.443	0.0151090
914.521	0.0150265
914.599	0.0150550
914.677	0.0150298
914.755	0.0150242
914.833	0.0150310
914.911	0.0151233
914.989	0.0150826
915.068	0.0150726
915.146	0.0151888
915.224	0.0150492
915.302	0.0152026
915.380	0.0150635
915.458	0.0150957
915.536	0.0151128
915.614	0.0150468
915.693	0.0151162
915.771	0.0150807
915.849	0.0151251
915.927	0.0151845
916.005	0.0151722
916.083	0.0151519
916.161	0.0150174
916.239	0.0150549
916.318	0.0153014
916.396	0.0150475
916.474	0.0152190
916.552	0.0151628
916.630	0.0150878
916.708	0.0151277
916.786	0.0150809
916.864	0.0150406
916.943	0.0150897
917.021	0.0151203
917.099	0.0150227
917.177	0.0150382
917.255	0.0152251
917.333	0.0150355
917.411	0.0150497
917.489	0.0150840
917.568	0.0150684
917.646	0.0151257
917.724	0.0151707
917.802	0.0150984
917.880	0.0150652
917.958	0.0151558
918.036	0.0151508
918.114	0.0151270
918.193	0.0151424
918.271	0.0151679
918.349	0.0151339
918.427	0.0151252
918.505	0.0152118
918.583	0.0151646
918.661	0.0150745
918.739	0.0149695
918.818	0.0151134
918.896	0.0152230
918.974	0.0150165
919.052	0.0150784
919.130	0.0151171
919.208	0.0151308
919.286	0.0151301
919.364	0.0150749
919.443	0.0150562
919.521	0.0151197
919.599	0.0151774
919.677	0.0151920
919.755	0.0151940
919.833	0.0152277
919.911	0.0152114
919.989	0.0152051
920.068	0.0151970
920.146	0.0152952
920.224	0.0152760
920.302	0.0151687
920.380	0.0152875
920.458	0.0153252
920.536	0.0151310
920.614	0.0151238
920.693	0.0152434
920.771	0.0152895
920.849	0.0150302
920.927	0.0150409
921.005	0.0151765
921.083	0.0152079
921.161	0.0151181
921.239	0.0150988
921.318	0.0151310
921.396	0.0151862
921.474	0.0152349
921.552	0.0152412
921.630	0.0151837
921.708	0.0152686
921.786	0.0151469
921.864	0.0151357
921.943	0.0151315
922.021	0.0154169
922.099	0.0152759
922.177	0.0152367
922.255	0.0152448
922.333	0.0153751
922.411	0.0151603
922.489	0.0152389
922.568	0.0152743
922.646	0.0152298
922.724	0.0152541
922.802	0.0151418
922.880	0.0151853
922.958	0.0151625
923.036	0.0152213
923.114	0.0151880
923.193	0.0151690
923.271	0.0150688
923.349	0.0152408
923.427	0.0150906
923.505	0.0150961
923.583	0.0151000
923.661	0.0151399
923.739	0.0151934
923.818	0.0151431
923.896	0.0151131
923.974	0.0151108
924.052	0.0151952
924.130	0.0152501
924.208	0.0152442
924.286	0.0152776
924.364	0.0151205
924.443	0.0150839
924.521	0.0151826
924.599	0.0152599
924.677	0.0151588
924.755	0.0151332
924.833	0.0150806
924.911	0.0151794
924.989	0.0152628
925.068	0.0150639
925.146	0.0151034
925.224	0.0150881
925.302	0.0151237
925.380	0.0151827
925.458	0.0152629
925.536	0.0150620
925.614	0.0152231
925.693	0.0150961
925.771	0.0152400
925.849	0.0153181
925.927	0.0152453
926.005	0.0153449
926.083	0.0152759
926.161	0.0153069
926.239	0.0152068
926.318	0.0151691
926.396	0.0152516
926.474	0.0153405
926.552	0.0152572
926.630	0.0153230
926.708	0.0151887
926.786	0.0152249
926.864	0.0151114
926.943	0.0150655
927.021	0.0150945
927.099	0.0150401
927.177	0.0151469
927.255	0.0151308
927.333	0.0152010
927.411	0.0151675
927.489	0.0151191
927.568	0.0150925
927.646	0.0151746
927.724	0.0150858
927.802	0.0151833
927.880	0.0152527
927.958	0.0151325
928.036	0.0151569
928.114	0.0152267
928.193	0.0151413
928.271	0.0151431
928.349	0.0151998
928.427	0.0153555
928.505	0.0152448
928.583	0.0151917
928.661	0.0151122
928.739	0.0150900
928.818	0.0152113
928.896	0.0151623
928.974	0.0149843
929.052	0.0149593
929.130	0.0150671
929.208	0.0151682
929.286	0.0152061
929.364	0.0151122
929.443	0.0151189
929.521	0.0150143
929.599	0.0151865
929.677	0.0151360
929.755	0.0150415
929.833	0.0151749
929.911	0.0150156
929.989	0.0150138
930.068	0.0151937
930.146	0.0152290
930.224	0.0150112
930.302	0.0150141
930.380	0.0150876
930.458	0.0150426
930.536	0.0150688
930.614	0.0151221
930.693	0.0150669
930.771	0.0150763
930.849	0.0151024
930.927	0.0149866
931.005	0.0150552
931.083	0.0152211
931.161	0.0151679
931.239	0.0151346
931.318	0.0151369
931.396	0.0151703
931.474	0.0152629
931.552	0.0152704
931.630	0.0151040
931.708	0.0151298
931.786	0.0151653
931.864	0.0151353
931.943	0.0149983
932.021	0.0151080
932.099	0.0151680
932.177	0.0151434
932.255	0.0151138
932.333	0.0149586
932.411	0.0150362
932.489	0.0151785
932.568	0.0153586
932.646	0.0151562
932.724	0.0150605
932.802	0.0152809
932.880	0.0151627
932.958	0.0152263
933.036	0.0151340
933.114	0.0152927
933.193	0.0151569
933.271	0.0151891
933.349	0.0151707
933.427	0.0152610
933.505	0.0151692
933.583	0.0151456
933.661	0.0150845
933.739	0.0150295
933.818	0.0151837
933.896	0.0151276
933.974	0.0151071
934.052	0.0150697
934.130	0.0152735
934.208	0.0152156
934.286	0.0151615
934.364	0.0151767
934.443	0.0151469
934.521	0.0151489
934.599	0.0151006
934.677	0.0152574
934.755	0.0151843
934.833	0.0151391
934.911	0.0151171
934.989	0.0150591
935.068	0.0152471
935.146	0.0151316
935.224	0.0150571
935.302	0.0151653
935.380	0.0152673
935.458	0.0151968
935.536	0.0151751
935.614	0.0152353
935.693	0.0150567
935.771	0.0151503
935.849	0.0151643
935.927	0.0151031
936.005	0.0152537
936.083	0.0151033
936.161	0.0151086
936.239	0.0152266
936.318	0.0150353
936.396	0.0151243
936.474	0.0152184
936.552	0.0151910
936.630	0.0151612
936.708	0.0149952
936.786	0.0151724
936.864	0.0151658
936.943	0.0150528
937.021	0.0151087
937.099	0.0152004
937.177	0.0151522
937.255	0.0150806
937.333	0.0151875
937.411	0.0152186
937.489	0.0152025
937.568	0.0153282
937.646	0.0151162
937.724	0.0151390
937.802	0.0150912
937.880	0.0151774
937.958	0.0152161
938.036	0.0154047
938.114	0.0151277
938.193	0.0150686
938.271	0.0150601
938.349	0.0151783
938.427	0.0151527
938.505	0.0152583
938.583	0.0151988
938.661	0.0152000
938.739	0.0152592
938.818	0.0151716
938.896	0.0152125
938.974	0.0151203
939.052	0.0153061
939.130	0.0152470
939.208	0.0150854
939.286	0.0152423
939.364	0.0152249
939.443	0.0152042
939.521	0.0152022
939.599	0.0151503
939.677	0.0152083
939.755	0.0151665
939.833	0.0152046
939.911	0.0151337
939.989	0.0151374
940.068	0.0151267
940.146	0.0152470
940.224	0.0151843
940.302	0.0151324
940.380	0.0151764
940.458	0.0151238
940.536	0.0151059
940.614	0.0150212
940.693	0.0152565
940.771	0.0151160
940.849	0.0149941
940.927	0.0150046
941.005	0.0150613
941.083	0.0150419
941.161	0.0151855
941.239	0.0152011
941.318	0.0153737
941.396	0.0151705
941.474	0.0152322
941.552	0.0150838
941.630	0.0150989
941.708	0.0152905
941.786	0.0152273
941.864	0.0152117
941.943	0.0152908
942.021	0.0152034
942.099	0.0151826
942.177	0.0150909
942.255	0.0151460
942.333	0.0150715
942.411	0.0151862
942.489	0.0152180
942.568	0.0152351
942.646	0.0151516
942.724	0.0151255
942.802	0.0151403
942.880	0.0150679
942.958	0.0152621
943.036	0.0152837
943.114	0.0152224
943.193	0.0152477
943.271	0.0151206
943.349	0.0151610
943.427	0.0151683
943.505	0.0152293
943.583	0.0152594
943.661	0.0153063
943.739	0.0151416
943.818	0.0151382
943.896	0.0151733
943.974	0.0152262
944.052	0.0151446
944.130	0.0152096
944.208	0.0151891
944.286	0.0150713
944.364	0.0151373
944.443	0.0151759
944.521	0.0152518
944.599	0.0152880
944.677	0.0152901
944.755	0.0152095
944.833	0.0151146
944.911	0.0151833
944.989	0.0152178
945.068	0.0150434
945.146	0.0153955
945.224	0.0153320
945.302	0.0152437
945.380	0.0152885
945.458	0.0153512
945.536	0.0152202
945.614	0.0153043
945.693	0.0152275
945.771	0.0151862
945.849	0.0152141
945.927	0.0152203
946.005	0.0150738
946.083	0.0152512
946.161	0.0151826
946.239	0.0152386
946.318	0.0151254
946.396	0.0151611
946.474	0.0152618
946.552	0.0151128
946.630	0.0151617
946.708	0.0152794
946.786	0.0153820
946.864	0.0151421
946.943	0.0152019
947.021	0.0151709
947.099	0.0152139
947.177	0.0151501
947.255	0.0152315
947.333	0.0151023
947.411	0.0151684
947.489	0.0152437
947.568	0.0152126
947.646	0.0151602
947.724	0.0151823
947.802	0.0153292
947.880	0.0150647
947.958	0.0151971
948.036	0.0152783
948.114	0.0151967
948.193	0.0151877
948.271	0.0153009
948.349	0.0151930
948.427	0.0149925
948.505	0.0151780
948.583	0.0152177
948.661	0.0150574
948.739	0.0151521
948.818	0.0151382
948.896	0.0151887
948.974	0.0152361
949.052	0.0152062
949.130	0.0151002
949.208	0.0151861
949.286	0.0150865
949.364	0.0150468
949.443	0.0151819
949.521	0.0150052
949.599	0.0151393
949.677	0.0151614
949.755	0.0152486
949.833	0.0152496
949.911	0.0150993
949.989	0.0151791
950.068	0.0151517
950.146	0.0151576
950.224	0.0151801
950.302	0.0153410
950.380	0.0152160
950.458	0.0151106
950.536	0.0154053
950.614	0.0152538
950.693	0.0151177
950.771	0.0150925
950.849	0.0152323
950.927	0.0152473
951.005	0.0151239
951.083	0.0151518
951.161	0.0151340
951.239	0.0151875
951.318	0.0152416
951.396	0.0151903
951.474	0.0151516
951.552	0.0152255
951.630	0.0151576
951.708	0.0151659
951.786	0.0151625
951.864	0.0151884
951.943	0.0151679
952.021	0.0150142
952.099	0.0150457
952.177	0.0151492
952.255	0.0151451
952.333	0.0152028
952.411	0.0151857
952.489	0.0152853
952.568	0.0151451
952.646	0.0152109
952.724	0.0151846
952.802	0.0152308
952.880	0.0151717
952.958	0.0151581
953.036	0.0151116
953.114	0.0151881
953.193	0.0153036
953.271	0.0151550
953.349	0.0151219
953.427	0.0152030
953.505	0.0150677
953.583	0.0152008
953.661	0.0151400
953.739	0.0151665
953.818	0.0152017
953.896	0.0151124
953.974	0.0151990
954.052	0.0152419
954.130	0.0153017
954.208	0.0151807
954.286	0.0150060
954.364	0.0150883
954.443	0.0151514
954.521	0.0151740
954.599	0.0151684
954.677	0.0151720
954.755	0.0150082
954.833	0.0152139
954.911	0.0150851
954.989	0.0150620
955.068	0.0151012
955.146	0.0150657
955.224	0.0151543
955.302	0.0150712
955.380	0.0149564
955.458	0.0150734
955.536	0.0151414
955.614	0.0150146
955.693	0.0150451
955.771	0.0150282
955.849	0.0149854
955.927	0.0150806
956.005	0.0150159
956.083	0.0151272
956.161	0.0150556
956.239	0.0150967
956.318	0.0151782
956.396	0.0150150
956.474	0.0152201
956.552	0.0150878
956.630	0.0150065
956.708	0.0150946
956.786	0.0151861
956.864	0.0151823
956.943	0.0151761
957.021	0.0151682
957.099	0.0151514
957.177	0.0149972
957.255	0.0150974
957.333	0.0152593
957.411	0.0150971
957.489	0.0152595
957.568	0.0150819
957.646	0.0148983
957.724	0.0151381
957.802	0.0150876
957.880	0.0151385
957.958	0.0151350
958.036	0.0151705
958.114	0.0151637
958.193	0.0152158
958.271	0.0151679
958.349	0.0150367
958.427	0.0150937
958.505	0.0151543
958.583	0.0151727
958.661	0.0152975
958.739	0.0152223
958.818	0.0151749
958.896	0.0150816
958.974	0.0151386
959.052	0.0151195
959.130	0.0151020
959.208	0.0151048
959.286	0.0151713
959.364	0.0151940
959.443	0.0150758
959.521	0.0151315
959.599	0.0151093
959.677	0.0151380
959.755	0.0152245
959.833	0.0150623
959.911	0.0150655
