05/17/2022	16:43:53	Ver.	4.1	UNKNOWN
Optical Delay	639.982744	Delta X		0.078125	Sweeps	1	Scan Rate	0/0
Coordinates	Axis 1	NaN	Axis 2	NaN	Axis 3	NaN	Axis 4	NaN	Axis 5	NaN	Axis 6	0.000000
TX Power	0.000000	RX Power	0.000000

639.983	0.0165202
640.061	0.0164899
640.139	0.0163648
640.217	0.0165157
640.295	0.0165771
640.373	0.0165095
640.451	0.0164725
640.530	0.0165358
640.608	0.0165278
640.686	0.0166357
640.764	0.0166653
640.842	0.0165753
640.920	0.0165549
640.998	0.0166459
641.076	0.0164989
641.155	0.0166516
641.233	0.0164897
641.311	0.0165244
641.389	0.0165440
641.467	0.0166833
641.545	0.0165521
641.623	0.0166338
641.701	0.0165154
641.780	0.0165190
641.858	0.0167043
641.936	0.0164275
642.014	0.0164695
642.092	0.0163856
642.170	0.0164855
642.248	0.0166313
642.326	0.0166512
642.405	0.0165324
642.483	0.0164363
642.561	0.0165009
642.639	0.0167250
642.717	0.0165275
642.795	0.0165141
642.873	0.0165580
642.951	0.0166015
643.030	0.0165055
643.108	0.0165253
643.186	0.0164572
643.264	0.0166147
643.342	0.0165778
643.420	0.0164817
643.498	0.0164322
643.576	0.0166338
643.655	0.0163947
643.733	0.0166169
643.811	0.0164900
643.889	0.0165408
643.967	0.0167271
644.045	0.0166259
644.123	0.0164653
644.201	0.0165784
644.280	0.0164917
644.358	0.0163912
644.436	0.0165463
644.514	0.0165485
644.592	0.0165068
644.670	0.0166499
644.748	0.0166640
644.826	0.0165215
644.905	0.0164842
644.983	0.0165742
645.061	0.0165304
645.139	0.0165337
645.217	0.0164021
645.295	0.0165685
645.373	0.0164213
645.451	0.0165498
645.530	0.0165405
645.608	0.0165149
645.686	0.0165342
645.764	0.0165944
645.842	0.0166227
645.920	0.0164619
645.998	0.0166032
646.076	0.0165360
646.155	0.0163705
646.233	0.0165677
646.311	0.0165362
646.389	0.0165125
646.467	0.0165024
646.545	0.0164568
646.623	0.0165092
646.701	0.0164552
646.780	0.0164890
646.858	0.0166439
646.936	0.0164178
647.014	0.0164467
647.092	0.0164788
647.170	0.0163202
647.248	0.0164373
647.326	0.0166191
647.405	0.0165650
647.483	0.0165360
647.561	0.0165738
647.639	0.0165151
647.717	0.0164935
647.795	0.0164767
647.873	0.0164915
647.951	0.0165092
648.030	0.0165981
648.108	0.0164408
648.186	0.0165868
648.264	0.0165867
648.342	0.0164432
648.420	0.0164321
648.498	0.0165822
648.576	0.0166235
648.655	0.0164096
648.733	0.0166129
648.811	0.0165605
648.889	0.0165206
648.967	0.0165551
649.045	0.0164693
649.123	0.0165937
649.201	0.0165434
649.280	0.0163773
649.358	0.0165073
649.436	0.0165614
649.514	0.0164821
649.592	0.0164915
649.670	0.0163660
649.748	0.0163612
649.826	0.0165049
649.905	0.0165146
649.983	0.0164976
650.061	0.0164619
650.139	0.0163524
650.217	0.0164468
650.295	0.0164438
650.373	0.0163702
650.451	0.0164921
650.530	0.0165925
650.608	0.0164455
650.686	0.0164970
650.764	0.0164943
650.842	0.0165091
650.920	0.0165780
650.998	0.0164231
651.076	0.0163555
651.155	0.0165257
651.233	0.0164970
651.311	0.0165883
651.389	0.0164140
651.467	0.0165604
651.545	0.0165250
651.623	0.0164136
651.701	0.0163631
651.780	0.0164618
651.858	0.0165491
651.936	0.0165656
652.014	0.0165335
652.092	0.0165259
652.170	0.0164818
652.248	0.0165984
652.326	0.0164245
652.405	0.0164987
652.483	0.0165077
652.561	0.0164375
652.639	0.0163484
652.717	0.0165416
652.795	0.0164149
652.873	0.0165293
652.951	0.0164325
653.030	0.0164404
653.108	0.0164574
653.186	0.0164317
653.264	0.0164915
653.342	0.0164953
653.420	0.0165302
653.498	0.0165192
653.576	0.0166093
653.655	0.0164357
653.733	0.0164957
653.811	0.0166502
653.889	0.0164986
653.967	0.0165038
654.045	0.0165665
654.123	0.0165855
654.201	0.0165774
654.280	0.0164764
654.358	0.0164893
654.436	0.0164831
654.514	0.0164687
654.592	0.0165800
654.670	0.0165588
654.748	0.0165714
654.826	0.0165503
654.905	0.0164754
654.983	0.0164975
655.061	0.0164429
655.139	0.0165468
655.217	0.0164533
655.295	0.0165484
655.373	0.0166256
655.451	0.0165023
655.530	0.0166022
655.608	0.0164940
655.686	0.0166711
655.764	0.0165237
655.842	0.0166001
655.920	0.0164581
655.998	0.0164698
656.076	0.0165933
656.155	0.0164573
656.233	0.0166132
656.311	0.0165132
656.389	0.0164460
656.467	0.0165324
656.545	0.0164495
656.623	0.0165506
656.701	0.0164517
656.780	0.0164381
656.858	0.0163554
656.936	0.0165628
657.014	0.0166582
657.092	0.0165336
657.170	0.0165841
657.248	0.0164263
657.326	0.0165266
657.405	0.0165958
657.483	0.0166248
657.561	0.0165097
657.639	0.0165388
657.717	0.0167191
657.795	0.0165346
657.873	0.0164550
657.951	0.0165440
658.030	0.0165459
658.108	0.0165364
658.186	0.0164967
658.264	0.0165532
658.342	0.0165531
658.420	0.0167058
658.498	0.0165986
658.576	0.0165480
658.655	0.0165924
658.733	0.0164343
658.811	0.0165648
658.889	0.0165737
658.967	0.0166455
659.045	0.0166149
659.123	0.0165424
659.201	0.0165855
659.280	0.0166037
659.358	0.0166728
659.436	0.0166946
659.514	0.0164744
659.592	0.0165099
659.670	0.0164868
659.748	0.0165742
659.826	0.0164778
659.905	0.0165146
659.983	0.0166465
660.061	0.0165981
660.139	0.0166124
660.217	0.0166034
660.295	0.0165096
660.373	0.0166186
660.451	0.0167443
660.530	0.0165612
660.608	0.0165131
660.686	0.0165166
660.764	0.0165523
660.842	0.0165528
660.920	0.0164613
660.998	0.0165443
661.076	0.0164275
661.155	0.0164445
661.233	0.0166003
661.311	0.0166808
661.389	0.0166472
661.467	0.0166045
661.545	0.0167178
661.623	0.0165175
661.701	0.0165954
661.780	0.0164662
661.858	0.0165097
661.936	0.0166479
662.014	0.0165914
662.092	0.0164971
662.170	0.0165880
662.248	0.0165351
662.326	0.0166708
662.405	0.0165508
662.483	0.0164835
662.561	0.0165614
662.639	0.0165601
662.717	0.0164705
662.795	0.0165817
662.873	0.0166595
662.951	0.0166319
663.030	0.0165028
663.108	0.0165215
663.186	0.0165488
663.264	0.0164072
663.342	0.0166135
663.420	0.0165735
663.498	0.0165800
663.576	0.0166690
663.655	0.0167328
663.733	0.0166117
663.811	0.0163483
663.889	0.0164573
663.967	0.0164140
664.045	0.0163753
664.123	0.0164648
664.201	0.0165077
664.280	0.0165028
664.358	0.0165154
664.436	0.0164750
664.514	0.0165803
664.592	0.0164899
664.670	0.0164533
664.748	0.0164652
664.826	0.0166923
664.905	0.0166252
664.983	0.0164668
665.061	0.0166340
665.139	0.0164436
665.217	0.0165904
665.295	0.0164014
665.373	0.0165191
665.451	0.0165386
665.530	0.0165196
665.608	0.0164577
665.686	0.0164703
665.764	0.0164082
665.842	0.0164944
665.920	0.0164771
665.998	0.0164896
666.076	0.0166259
666.155	0.0165420
666.233	0.0163873
666.311	0.0163631
666.389	0.0165700
666.467	0.0165739
666.545	0.0163429
666.623	0.0165546
666.701	0.0163993
666.780	0.0163810
666.858	0.0165225
666.936	0.0164897
667.014	0.0164126
667.092	0.0165158
667.170	0.0164901
667.248	0.0164548
667.326	0.0164471
667.405	0.0164005
667.483	0.0165166
667.561	0.0165626
667.639	0.0164919
667.717	0.0165242
667.795	0.0163826
667.873	0.0164294
667.951	0.0164549
668.030	0.0166301
668.108	0.0164421
668.186	0.0165811
668.264	0.0165022
668.342	0.0163855
668.420	0.0165826
668.498	0.0165720
668.576	0.0165374
668.655	0.0165554
668.733	0.0165577
668.811	0.0162715
668.889	0.0164767
668.967	0.0166145
669.045	0.0166402
669.123	0.0165628
669.201	0.0165035
669.280	0.0166066
669.358	0.0165953
669.436	0.0165611
669.514	0.0166041
669.592	0.0165631
669.670	0.0166240
669.748	0.0164301
669.826	0.0165067
669.905	0.0166018
669.983	0.0166224
670.061	0.0165183
670.139	0.0165437
670.217	0.0164462
670.295	0.0164214
670.373	0.0165062
670.451	0.0164108
670.530	0.0165178
670.608	0.0165263
670.686	0.0163015
670.764	0.0165276
670.842	0.0165710
670.920	0.0165581
670.998	0.0164584
671.076	0.0164774
671.155	0.0163843
671.233	0.0165734
671.311	0.0165711
671.389	0.0166055
671.467	0.0163403
671.545	0.0163621
671.623	0.0165173
671.701	0.0165688
671.780	0.0164325
671.858	0.0164440
671.936	0.0164567
672.014	0.0164654
672.092	0.0164542
672.170	0.0164339
672.248	0.0164552
672.326	0.0165125
672.405	0.0163667
672.483	0.0163786
672.561	0.0165829
672.639	0.0164239
672.717	0.0164815
672.795	0.0164065
672.873	0.0164329
672.951	0.0164720
673.030	0.0164410
673.108	0.0164536
673.186	0.0163551
673.264	0.0163918
673.342	0.0164011
673.420	0.0164783
673.498	0.0164783
673.576	0.0164300
673.655	0.0165470
673.733	0.0165137
673.811	0.0164668
673.889	0.0162996
673.967	0.0165022
674.045	0.0164338
674.123	0.0163860
674.201	0.0163855
674.280	0.0163523
674.358	0.0164390
674.436	0.0166190
674.514	0.0165693
674.592	0.0164768
674.670	0.0164075
674.748	0.0164935
674.826	0.0164602
674.905	0.0164589
674.983	0.0166110
675.061	0.0165786
675.139	0.0165753
675.217	0.0165018
675.295	0.0164475
675.373	0.0166219
675.451	0.0164090
675.530	0.0165092
675.608	0.0164887
675.686	0.0165824
675.764	0.0164584
675.842	0.0165356
675.920	0.0165014
675.998	0.0163871
676.076	0.0163226
676.155	0.0163887
676.233	0.0163637
676.311	0.0164106
676.389	0.0162894
676.467	0.0163453
676.545	0.0164582
676.623	0.0164146
676.701	0.0165128
676.780	0.0165601
676.858	0.0164783
676.936	0.0165104
677.014	0.0164506
677.092	0.0165511
677.170	0.0166750
677.248	0.0166395
677.326	0.0165527
677.405	0.0167030
677.483	0.0166206
677.561	0.0166156
677.639	0.0166051
677.717	0.0166702
677.795	0.0165135
677.873	0.0164818
677.951	0.0164837
678.030	0.0163644
678.108	0.0162382
678.186	0.0162791
678.264	0.0162965
678.342	0.0163439
678.420	0.0164783
678.498	0.0163387
678.576	0.0164973
678.655	0.0163707
678.733	0.0164819
678.811	0.0164876
678.889	0.0164002
678.967	0.0164845
679.045	0.0164861
679.123	0.0165311
679.201	0.0166245
679.280	0.0166743
679.358	0.0165973
679.436	0.0168244
679.514	0.0167880
679.592	0.0166132
679.670	0.0167822
679.748	0.0168340
679.826	0.0167886
679.905	0.0168808
679.983	0.0166863
680.061	0.0167236
680.139	0.0166569
680.217	0.0166044
680.295	0.0163884
680.373	0.0163595
680.451	0.0163193
680.530	0.0163595
680.608	0.0162617
680.686	0.0160185
680.764	0.0161241
680.842	0.0162895
680.920	0.0161933
680.998	0.0161576
681.076	0.0161752
681.155	0.0164076
681.233	0.0163073
681.311	0.0163531
681.389	0.0164473
681.467	0.0165336
681.545	0.0165815
681.623	0.0166209
681.701	0.0167015
681.780	0.0166928
681.858	0.0167364
681.936	0.0167383
682.014	0.0169687
682.092	0.0168831
682.170	0.0167317
682.248	0.0168468
682.326	0.0169347
682.405	0.0167062
682.483	0.0164434
682.561	0.0165688
682.639	0.0166249
682.717	0.0164109
682.795	0.0163048
682.873	0.0161674
682.951	0.0161124
683.030	0.0160570
683.108	0.0160777
683.186	0.0160548
683.264	0.0160860
683.342	0.0161116
683.420	0.0161388
683.498	0.0162949
683.576	0.0163334
683.655	0.0163346
683.733	0.0163664
683.811	0.0165812
683.889	0.0166683
683.967	0.0168287
684.045	0.0169193
684.123	0.0170704
684.201	0.0169861
684.280	0.0168218
684.358	0.0169179
684.436	0.0168984
684.514	0.0169264
684.592	0.0169032
684.670	0.0166348
684.748	0.0163676
684.826	0.0163316
684.905	0.0163031
684.983	0.0162345
685.061	0.0161084
685.139	0.0160555
685.217	0.0158370
685.295	0.0158434
685.373	0.0157774
685.451	0.0157087
685.530	0.0157334
685.608	0.0157606
685.686	0.0158353
685.764	0.0160324
685.842	0.0161643
685.920	0.0162483
685.998	0.0163288
686.076	0.0166135
686.155	0.0167509
686.233	0.0167894
686.311	0.0171537
686.389	0.0172913
686.467	0.0173827
686.545	0.0175644
686.623	0.0173966
686.701	0.0176711
686.780	0.0177515
686.858	0.0176679
686.936	0.0176434
687.014	0.0177360
687.092	0.0175344
687.170	0.0174440
687.248	0.0174117
687.326	0.0173056
687.405	0.0169193
687.483	0.0168734
687.561	0.0167887
687.639	0.0166680
687.717	0.0164059
687.795	0.0162491
687.873	0.0161967
687.951	0.0160269
688.030	0.0157923
688.108	0.0154814
688.186	0.0153607
688.264	0.0152543
688.342	0.0150228
688.420	0.0147807
688.498	0.0147758
688.576	0.0146954
688.655	0.0147157
688.733	0.0148347
688.811	0.0150921
688.889	0.0152391
688.967	0.0153790
689.045	0.0155286
689.123	0.0158372
689.201	0.0161299
689.280	0.0163155
689.358	0.0166221
689.436	0.0167986
689.514	0.0169073
689.592	0.0172398
689.670	0.0173631
689.748	0.0176077
689.826	0.0177830
689.905	0.0181417
689.983	0.0183708
690.061	0.0185813
690.139	0.0186770
690.217	0.0188589
690.295	0.0187257
690.373	0.0185322
690.451	0.0184335
690.530	0.0180234
690.608	0.0179436
690.686	0.0178485
690.764	0.0174704
690.842	0.0173142
690.920	0.0172810
690.998	0.0171622
691.076	0.0170096
691.155	0.0169720
691.233	0.0168055
691.311	0.0168415
691.389	0.0167381
691.467	0.0165947
691.545	0.0165124
691.623	0.0164460
691.701	0.0162994
691.780	0.0161297
691.858	0.0160269
691.936	0.0157352
692.014	0.0155004
692.092	0.0153808
692.170	0.0153695
692.248	0.0150503
692.326	0.0147561
692.405	0.0145016
692.483	0.0143540
692.561	0.0142092
692.639	0.0141216
692.717	0.0139122
692.795	0.0137192
692.873	0.0137645
692.951	0.0138414
693.030	0.0138072
693.108	0.0138828
693.186	0.0140400
693.264	0.0142361
693.342	0.0145419
693.420	0.0149395
693.498	0.0151882
693.576	0.0157220
693.655	0.0161858
693.733	0.0165908
693.811	0.0171895
693.889	0.0175758
693.967	0.0182943
694.045	0.0187746
694.123	0.0194309
694.201	0.0199684
694.280	0.0204838
694.358	0.0210335
694.436	0.0214283
694.514	0.0216279
694.592	0.0217385
694.670	0.0217188
694.748	0.0217744
694.826	0.0215043
694.905	0.0213885
694.983	0.0210262
695.061	0.0204520
695.139	0.0198151
695.217	0.0192549
695.295	0.0185625
695.373	0.0178770
695.451	0.0170815
695.530	0.0164145
695.608	0.0156138
695.686	0.0150166
695.764	0.0144828
695.842	0.0140382
695.920	0.0134966
695.998	0.0133434
696.076	0.0133217
696.155	0.0131128
696.233	0.0131762
696.311	0.0132881
696.389	0.0133415
696.467	0.0135995
696.545	0.0138548
696.623	0.0141022
696.701	0.0143718
696.780	0.0145938
696.858	0.0149274
696.936	0.0150968
697.014	0.0151268
697.092	0.0153150
697.170	0.0153918
697.248	0.0153838
697.326	0.0151448
697.405	0.0150400
697.483	0.0150832
697.561	0.0148222
697.639	0.0147318
697.717	0.0146957
697.795	0.0146674
697.873	0.0145389
697.951	0.0147401
698.030	0.0147512
698.108	0.0147570
698.186	0.0148722
698.264	0.0152137
698.342	0.0153141
698.420	0.0154165
698.498	0.0157761
698.576	0.0160785
698.655	0.0167072
698.733	0.0171798
698.811	0.0177389
698.889	0.0183190
698.967	0.0191177
699.045	0.0199263
699.123	0.0207708
699.201	0.0215070
699.280	0.0219487
699.358	0.0226080
699.436	0.0232188
699.514	0.0232894
699.592	0.0232969
699.670	0.0232524
699.748	0.0228734
699.826	0.0225133
699.905	0.0217834
699.983	0.0211589
700.061	0.0202274
700.139	0.0193156
700.217	0.0183855
700.295	0.0173395
700.373	0.0163782
700.451	0.0156114
700.530	0.0145535
700.608	0.0137902
700.686	0.0131770
700.764	0.0123946
700.842	0.0120117
700.920	0.0117331
700.998	0.0114233
701.076	0.0113258
701.155	0.0111044
701.233	0.0113291
701.311	0.0114482
701.389	0.0116985
701.467	0.0119518
701.545	0.0122988
701.623	0.0127750
701.701	0.0131571
701.780	0.0136511
701.858	0.0139870
701.936	0.0142155
702.014	0.0144424
702.092	0.0145701
702.170	0.0148571
702.248	0.0149405
702.326	0.0149980
702.405	0.0150961
702.483	0.0152705
702.561	0.0152686
702.639	0.0153358
702.717	0.0155666
702.795	0.0156013
702.873	0.0156912
702.951	0.0159850
703.030	0.0161329
703.108	0.0163786
703.186	0.0168544
703.264	0.0171470
703.342	0.0176283
703.420	0.0180080
703.498	0.0183321
703.576	0.0187888
703.655	0.0193538
703.733	0.0199160
703.811	0.0204338
703.889	0.0208080
703.967	0.0210331
704.045	0.0215578
704.123	0.0218005
704.201	0.0220258
704.280	0.0221781
704.358	0.0224647
704.436	0.0224720
704.514	0.0221523
704.592	0.0219498
704.670	0.0215913
704.748	0.0210826
704.826	0.0205604
704.905	0.0197451
704.983	0.0191045
705.061	0.0182912
705.139	0.0175796
705.217	0.0166119
705.295	0.0159577
705.373	0.0153172
705.451	0.0145425
705.530	0.0139349
705.608	0.0133912
705.686	0.0128371
705.764	0.0124678
705.842	0.0120316
705.920	0.0117426
705.998	0.0115666
706.076	0.0113129
706.155	0.0113775
706.233	0.0113837
706.311	0.0117958
706.389	0.0117342
706.467	0.0120291
706.545	0.0123961
706.623	0.0127829
706.701	0.0132981
706.780	0.0136648
706.858	0.0139931
706.936	0.0144727
707.014	0.0149706
707.092	0.0153382
707.170	0.0156920
707.248	0.0159735
707.326	0.0161353
707.405	0.0164678
707.483	0.0165213
707.561	0.0167745
707.639	0.0168324
707.717	0.0168334
707.795	0.0170351
707.873	0.0170652
707.951	0.0169484
708.030	0.0170452
708.108	0.0168903
708.186	0.0170569
708.264	0.0169152
708.342	0.0169214
708.420	0.0169176
708.498	0.0168207
708.576	0.0169683
708.655	0.0170403
708.733	0.0171112
708.811	0.0171998
708.889	0.0175508
708.967	0.0178292
709.045	0.0181230
709.123	0.0184798
709.201	0.0187091
709.280	0.0191716
709.358	0.0192850
709.436	0.0195874
709.514	0.0197949
709.592	0.0199345
709.670	0.0199948
709.748	0.0203371
709.826	0.0202657
709.905	0.0202540
709.983	0.0202158
710.061	0.0200397
710.139	0.0198472
710.217	0.0196479
710.295	0.0194944
710.373	0.0189588
710.451	0.0185677
710.530	0.0179794
710.608	0.0175783
710.686	0.0170708
710.764	0.0164172
710.842	0.0160936
710.920	0.0156274
710.998	0.0152436
711.076	0.0147777
711.155	0.0144383
711.233	0.0141123
711.311	0.0138398
711.389	0.0135619
711.467	0.0133398
711.545	0.0131800
711.623	0.0128912
711.701	0.0130975
711.780	0.0130407
711.858	0.0130138
711.936	0.0130623
712.014	0.0131101
712.092	0.0134978
712.170	0.0136629
712.248	0.0138658
712.326	0.0142355
712.405	0.0145866
712.483	0.0148364
712.561	0.0152119
712.639	0.0156135
712.717	0.0157981
712.795	0.0160533
712.873	0.0163869
712.951	0.0167210
713.030	0.0168707
713.108	0.0169393
713.186	0.0170277
713.264	0.0170539
713.342	0.0171063
713.420	0.0169581
713.498	0.0167718
713.576	0.0167255
713.655	0.0167170
713.733	0.0166993
713.811	0.0165820
713.889	0.0163615
713.967	0.0163261
714.045	0.0164671
714.123	0.0165776
714.201	0.0165802
714.280	0.0166464
714.358	0.0170049
714.436	0.0171284
714.514	0.0173977
714.592	0.0178276
714.670	0.0180706
714.748	0.0184113
714.826	0.0186629
714.905	0.0191825
714.983	0.0192842
715.061	0.0195575
715.139	0.0197505
715.217	0.0198717
715.295	0.0200468
715.373	0.0200556
715.451	0.0200314
715.530	0.0199474
715.608	0.0195582
715.686	0.0194254
715.764	0.0191705
715.842	0.0187202
715.920	0.0181439
715.998	0.0177688
716.076	0.0174844
716.155	0.0169699
716.233	0.0165747
716.311	0.0161862
716.389	0.0156853
716.467	0.0152915
716.545	0.0149448
716.623	0.0144482
716.701	0.0141974
716.780	0.0140193
716.858	0.0137631
716.936	0.0135193
717.014	0.0133177
717.092	0.0132501
717.170	0.0134991
717.248	0.0133195
717.326	0.0136011
717.405	0.0138877
717.483	0.0141358
717.561	0.0143601
717.639	0.0148361
717.717	0.0151948
717.795	0.0154671
717.873	0.0158211
717.951	0.0161835
718.030	0.0167461
718.108	0.0168710
718.186	0.0171036
718.264	0.0170911
718.342	0.0173539
718.420	0.0173414
718.498	0.0172472
718.576	0.0172390
718.655	0.0171465
718.733	0.0168033
718.811	0.0167986
718.889	0.0166522
718.967	0.0166382
719.045	0.0165134
719.123	0.0162965
719.201	0.0162839
719.280	0.0164652
719.358	0.0163949
719.436	0.0163603
719.514	0.0163853
719.592	0.0164455
719.670	0.0164243
719.748	0.0165136
719.826	0.0169305
719.905	0.0170305
719.983	0.0171661
720.061	0.0174792
720.139	0.0177112
720.217	0.0179287
720.295	0.0179607
720.373	0.0183288
720.451	0.0184894
720.530	0.0186738
720.608	0.0188187
720.686	0.0190820
720.764	0.0190986
720.842	0.0190510
720.920	0.0189958
720.998	0.0190759
721.076	0.0188667
721.155	0.0186366
721.233	0.0185243
721.311	0.0180143
721.389	0.0178771
721.467	0.0173569
721.545	0.0167741
721.623	0.0165065
721.701	0.0159983
721.780	0.0156925
721.858	0.0152868
721.936	0.0148322
722.014	0.0144605
722.092	0.0141679
722.170	0.0139906
722.248	0.0138454
722.326	0.0137015
722.405	0.0137695
722.483	0.0137005
722.561	0.0139751
722.639	0.0140954
722.717	0.0143520
722.795	0.0146483
722.873	0.0148477
722.951	0.0153422
723.030	0.0159171
723.108	0.0162793
723.186	0.0166862
723.264	0.0171098
723.342	0.0175272
723.420	0.0179293
723.498	0.0180764
723.576	0.0181807
723.655	0.0182430
723.733	0.0183079
723.811	0.0181743
723.889	0.0179034
723.967	0.0176678
724.045	0.0175015
724.123	0.0171797
724.201	0.0167565
724.280	0.0164475
724.358	0.0162429
724.436	0.0158072
724.514	0.0156669
724.592	0.0155333
724.670	0.0152335
724.748	0.0151773
724.826	0.0153349
724.905	0.0152714
724.983	0.0154765
725.061	0.0155907
725.139	0.0157058
725.217	0.0160997
725.295	0.0161984
725.373	0.0164391
725.451	0.0166637
725.530	0.0170321
725.608	0.0173132
725.686	0.0175484
725.764	0.0178389
725.842	0.0178253
725.920	0.0179899
725.998	0.0182452
726.076	0.0181852
726.155	0.0181387
726.233	0.0179646
726.311	0.0180869
726.389	0.0177871
726.467	0.0174670
726.545	0.0174168
726.623	0.0172340
726.701	0.0166822
726.780	0.0163290
726.858	0.0160589
726.936	0.0157551
727.014	0.0153333
727.092	0.0151151
727.170	0.0150018
727.248	0.0148927
727.326	0.0147377
727.405	0.0145956
727.483	0.0148698
727.561	0.0148493
727.639	0.0151242
727.717	0.0152847
727.795	0.0157342
727.873	0.0159460
727.951	0.0161443
728.030	0.0166031
728.108	0.0168543
728.186	0.0170371
728.264	0.0173373
728.342	0.0175338
728.420	0.0175121
728.498	0.0177854
728.576	0.0177974
728.655	0.0177753
728.733	0.0178821
728.811	0.0177309
728.889	0.0176465
728.967	0.0175123
729.045	0.0172939
729.123	0.0173168
729.201	0.0171649
729.280	0.0169382
729.358	0.0167746
729.436	0.0166698
729.514	0.0163789
729.592	0.0163131
729.670	0.0161892
729.748	0.0160654
729.826	0.0161179
729.905	0.0158595
729.983	0.0159469
730.061	0.0160483
730.139	0.0160961
730.217	0.0162160
730.295	0.0164372
730.373	0.0163932
730.451	0.0163889
730.530	0.0165292
730.608	0.0167916
730.686	0.0168270
730.764	0.0165867
730.842	0.0167939
730.920	0.0165739
730.998	0.0165932
731.076	0.0163931
731.155	0.0162727
731.233	0.0160483
731.311	0.0162322
731.389	0.0160529
731.467	0.0160028
731.545	0.0160962
731.623	0.0160881
731.701	0.0160414
731.780	0.0159617
731.858	0.0159714
731.936	0.0159104
732.014	0.0158941
732.092	0.0159898
732.170	0.0160806
732.248	0.0161340
732.326	0.0162590
732.405	0.0163429
732.483	0.0163423
732.561	0.0163221
732.639	0.0164028
732.717	0.0163866
732.795	0.0165025
732.873	0.0167889
732.951	0.0166570
733.030	0.0167023
733.108	0.0168330
733.186	0.0169574
733.264	0.0169511
733.342	0.0169910
733.420	0.0170902
733.498	0.0171026
733.576	0.0172897
733.655	0.0173271
733.733	0.0173669
733.811	0.0173238
733.889	0.0174770
733.967	0.0174442
734.045	0.0174158
734.123	0.0174291
734.201	0.0172781
734.280	0.0173002
734.358	0.0171724
734.436	0.0171123
734.514	0.0170560
734.592	0.0170052
734.670	0.0165844
734.748	0.0165842
734.826	0.0164745
734.905	0.0165337
734.983	0.0162209
735.061	0.0161121
735.139	0.0160946
735.217	0.0159637
735.295	0.0158736
735.373	0.0159094
735.451	0.0158378
735.530	0.0157354
735.608	0.0157940
735.686	0.0158023
735.764	0.0159132
735.842	0.0157928
735.920	0.0158781
735.998	0.0159059
736.076	0.0161189
736.155	0.0160116
736.233	0.0160935
736.311	0.0161894
736.389	0.0162458
736.467	0.0163205
736.545	0.0164066
736.623	0.0163578
736.701	0.0161928
736.780	0.0164094
736.858	0.0163570
736.936	0.0163139
737.014	0.0161904
737.092	0.0163152
737.170	0.0162833
737.248	0.0161843
737.326	0.0163647
737.405	0.0163435
737.483	0.0163140
737.561	0.0163133
737.639	0.0165427
737.717	0.0167553
737.795	0.0167333
737.873	0.0167742
737.951	0.0169451
738.030	0.0169852
738.108	0.0170789
738.186	0.0171889
738.264	0.0173399
738.342	0.0174164
738.420	0.0175090
738.498	0.0173702
738.576	0.0176124
738.655	0.0177899
738.733	0.0175756
738.811	0.0175810
738.889	0.0175813
738.967	0.0174238
739.045	0.0173773
739.123	0.0173804
739.201	0.0171645
739.280	0.0170582
739.358	0.0169649
739.436	0.0167047
739.514	0.0165759
739.592	0.0163161
739.670	0.0161518
739.748	0.0159737
739.826	0.0160471
739.905	0.0157896
739.983	0.0158678
740.061	0.0157627
740.139	0.0157830
740.217	0.0157200
740.295	0.0158118
740.373	0.0158866
740.451	0.0160025
740.530	0.0160671
740.608	0.0160445
740.686	0.0161745
740.764	0.0162995
740.842	0.0164018
740.920	0.0164823
740.998	0.0164598
741.076	0.0164963
741.155	0.0165462
741.233	0.0167362
741.311	0.0164911
741.389	0.0166439
741.467	0.0165308
741.545	0.0164804
741.623	0.0164868
741.701	0.0164574
741.780	0.0165484
741.858	0.0165613
741.936	0.0165544
742.014	0.0163281
742.092	0.0163476
742.170	0.0162355
742.248	0.0161829
742.326	0.0161597
742.405	0.0162514
742.483	0.0163360
742.561	0.0162543
742.639	0.0163605
742.717	0.0163785
742.795	0.0164362
742.873	0.0165179
742.951	0.0166225
743.030	0.0165244
743.108	0.0166593
743.186	0.0169564
743.264	0.0169646
743.342	0.0169519
743.420	0.0170695
743.498	0.0171139
743.576	0.0170567
743.655	0.0171646
743.733	0.0171633
743.811	0.0171883
743.889	0.0170774
743.967	0.0171167
744.045	0.0169581
744.123	0.0168736
744.201	0.0166409
744.280	0.0167286
744.358	0.0166165
744.436	0.0165309
744.514	0.0165127
744.592	0.0164940
744.670	0.0163327
744.748	0.0160957
744.826	0.0161430
744.905	0.0160867
744.983	0.0161019
745.061	0.0160432
745.139	0.0160688
745.217	0.0161124
745.295	0.0160957
745.373	0.0161853
745.451	0.0162508
745.530	0.0162291
745.608	0.0163631
745.686	0.0164662
745.764	0.0165810
745.842	0.0165007
745.920	0.0164874
745.998	0.0165662
746.076	0.0165999
746.155	0.0166264
746.233	0.0168125
746.311	0.0166408
746.389	0.0167020
746.467	0.0167220
746.545	0.0167769
746.623	0.0169276
746.701	0.0167780
746.780	0.0168934
746.858	0.0168001
746.936	0.0167718
747.014	0.0166203
747.092	0.0167290
747.170	0.0166933
747.248	0.0166994
747.326	0.0165800
747.405	0.0165562
747.483	0.0165985
747.561	0.0165535
747.639	0.0166540
747.717	0.0163915
747.795	0.0165772
747.873	0.0165830
747.951	0.0164914
748.030	0.0165100
748.108	0.0165532
748.186	0.0166335
748.264	0.0167113
748.342	0.0166501
748.420	0.0165155
748.498	0.0165850
748.576	0.0166377
748.655	0.0166560
748.733	0.0166242
748.811	0.0167335
748.889	0.0166830
748.967	0.0166570
749.045	0.0164987
749.123	0.0165687
749.201	0.0164177
749.280	0.0163555
749.358	0.0162508
749.436	0.0161578
749.514	0.0162302
749.592	0.0160985
749.670	0.0161817
749.748	0.0160580
749.826	0.0160243
749.905	0.0159960
749.983	0.0160524
750.061	0.0159578
750.139	0.0159777
750.217	0.0158908
750.295	0.0161517
750.373	0.0161119
750.451	0.0161549
750.530	0.0162433
750.608	0.0163040
750.686	0.0164113
750.764	0.0164853
750.842	0.0165176
750.920	0.0167931
750.998	0.0166846
751.076	0.0167514
751.155	0.0170669
751.233	0.0170812
751.311	0.0169504
751.389	0.0170814
751.467	0.0171645
751.545	0.0170452
751.623	0.0172235
751.701	0.0173371
751.780	0.0172703
751.858	0.0171315
751.936	0.0172509
752.014	0.0171072
752.092	0.0171174
752.170	0.0169386
752.248	0.0170135
752.326	0.0168157
752.405	0.0165960
752.483	0.0166341
752.561	0.0165970
752.639	0.0166167
752.717	0.0165592
752.795	0.0164837
752.873	0.0164695
752.951	0.0163608
753.030	0.0162521
753.108	0.0162073
753.186	0.0161047
753.264	0.0162325
753.342	0.0162717
753.420	0.0162840
753.498	0.0163345
753.576	0.0162860
753.655	0.0162410
753.733	0.0162147
753.811	0.0161860
753.889	0.0161345
753.967	0.0162041
754.045	0.0162582
754.123	0.0162029
754.201	0.0163545
754.280	0.0163812
754.358	0.0161414
754.436	0.0163475
754.514	0.0163934
754.592	0.0163029
754.670	0.0164505
754.748	0.0164761
754.826	0.0162540
754.905	0.0164412
754.983	0.0163725
755.061	0.0161805
755.139	0.0163010
755.217	0.0162722
755.295	0.0162411
755.373	0.0163465
755.451	0.0162690
755.530	0.0163605
755.608	0.0164410
755.686	0.0163558
755.764	0.0161948
755.842	0.0162954
755.920	0.0163893
755.998	0.0165218
756.076	0.0164825
756.155	0.0164478
756.233	0.0166041
756.311	0.0165173
756.389	0.0166882
756.467	0.0167760
756.545	0.0168121
756.623	0.0168876
756.701	0.0168409
756.780	0.0169583
756.858	0.0169518
756.936	0.0168539
757.014	0.0169254
757.092	0.0167400
757.170	0.0167604
757.248	0.0167194
757.326	0.0167065
757.405	0.0163515
757.483	0.0163425
757.561	0.0162926
757.639	0.0164060
757.717	0.0162239
757.795	0.0161590
757.873	0.0162070
757.951	0.0161411
758.030	0.0161565
758.108	0.0161932
758.186	0.0163116
758.264	0.0162265
758.342	0.0163874
758.420	0.0163754
758.498	0.0164211
758.576	0.0164050
758.655	0.0165909
758.733	0.0165582
758.811	0.0166924
758.889	0.0166756
758.967	0.0168335
759.045	0.0167838
759.123	0.0166923
759.201	0.0168486
759.280	0.0168211
759.358	0.0167811
759.436	0.0169080
759.514	0.0168002
759.592	0.0166449
759.670	0.0166698
759.748	0.0167447
759.826	0.0166315
759.905	0.0167807
759.983	0.0167010
760.061	0.0165981
760.139	0.0165585
760.217	0.0166386
760.295	0.0164946
760.373	0.0164934
760.451	0.0163316
760.530	0.0163190
760.608	0.0163127
760.686	0.0161703
760.764	0.0162737
760.842	0.0162965
760.920	0.0162117
760.998	0.0162111
761.076	0.0161745
761.155	0.0162090
761.233	0.0162140
761.311	0.0162731
761.389	0.0164214
761.467	0.0163419
761.545	0.0164349
761.623	0.0165074
761.701	0.0166409
761.780	0.0166795
761.858	0.0166161
761.936	0.0166692
762.014	0.0167874
762.092	0.0165970
762.170	0.0167796
762.248	0.0168798
762.326	0.0168752
762.405	0.0169680
762.483	0.0167567
762.561	0.0167651
762.639	0.0167178
762.717	0.0166025
762.795	0.0165379
762.873	0.0166131
762.951	0.0164307
763.030	0.0164602
763.108	0.0164972
763.186	0.0162602
763.264	0.0164610
763.342	0.0163240
763.420	0.0162648
763.498	0.0162444
763.576	0.0164122
763.655	0.0163624
763.733	0.0163982
763.811	0.0163160
763.889	0.0163513
763.967	0.0164797
764.045	0.0164701
764.123	0.0163952
764.201	0.0164476
764.280	0.0166222
764.358	0.0165775
764.436	0.0165374
764.514	0.0165403
764.592	0.0166208
764.670	0.0165671
764.748	0.0166692
764.826	0.0166469
764.905	0.0164983
764.983	0.0167586
765.061	0.0166331
765.139	0.0164469
765.217	0.0166567
765.295	0.0167897
765.373	0.0165867
765.451	0.0166292
765.530	0.0166289
765.608	0.0165347
765.686	0.0166813
765.764	0.0166182
765.842	0.0167323
765.920	0.0166677
765.998	0.0165523
766.076	0.0166103
766.155	0.0166224
766.233	0.0165939
766.311	0.0166208
766.389	0.0167883
766.467	0.0165678
766.545	0.0166404
766.623	0.0165264
766.701	0.0166194
766.780	0.0165912
766.858	0.0165677
766.936	0.0166272
767.014	0.0165448
767.092	0.0166118
767.170	0.0165731
767.248	0.0165426
767.326	0.0165170
767.405	0.0165057
767.483	0.0165316
767.561	0.0165289
767.639	0.0166351
767.717	0.0167597
767.795	0.0165824
767.873	0.0165578
767.951	0.0165368
768.030	0.0164648
768.108	0.0164069
768.186	0.0165788
768.264	0.0163496
768.342	0.0164138
768.420	0.0164052
768.498	0.0163692
768.576	0.0162260
768.655	0.0164746
768.733	0.0162910
768.811	0.0163378
768.889	0.0164201
768.967	0.0164346
769.045	0.0164580
769.123	0.0164787
769.201	0.0164926
769.280	0.0165070
769.358	0.0164676
769.436	0.0165454
769.514	0.0166837
769.592	0.0166074
769.670	0.0165591
769.748	0.0168189
769.826	0.0168475
769.905	0.0167321
769.983	0.0167806
770.061	0.0166721
770.139	0.0165874
770.217	0.0168840
770.295	0.0168878
770.373	0.0167682
770.451	0.0168567
770.530	0.0167190
770.608	0.0167108
770.686	0.0167654
770.764	0.0166970
770.842	0.0166640
770.920	0.0167107
770.998	0.0167036
771.076	0.0164937
771.155	0.0164061
771.233	0.0164485
771.311	0.0164185
771.389	0.0164790
771.467	0.0162470
771.545	0.0162272
771.623	0.0163660
771.701	0.0162696
771.780	0.0161955
771.858	0.0162602
771.936	0.0162111
772.014	0.0163834
772.092	0.0161970
772.170	0.0162495
772.248	0.0164037
772.326	0.0163676
772.405	0.0162389
772.483	0.0164510
772.561	0.0164904
772.639	0.0166496
772.717	0.0166064
772.795	0.0166856
772.873	0.0166282
772.951	0.0166636
773.030	0.0166005
773.108	0.0167814
773.186	0.0168457
773.264	0.0167514
773.342	0.0165591
773.420	0.0167200
773.498	0.0168180
773.576	0.0166064
773.655	0.0167391
773.733	0.0168648
773.811	0.0167613
773.889	0.0167007
773.967	0.0166725
774.045	0.0167066
774.123	0.0166985
774.201	0.0166553
774.280	0.0167199
774.358	0.0165917
774.436	0.0165553
774.514	0.0166068
774.592	0.0166244
774.670	0.0166387
774.748	0.0166597
774.826	0.0165662
774.905	0.0165052
774.983	0.0165697
775.061	0.0164332
775.139	0.0164587
775.217	0.0165423
775.295	0.0164246
775.373	0.0165345
775.451	0.0164996
775.530	0.0164925
775.608	0.0164466
775.686	0.0165470
775.764	0.0163967
775.842	0.0164156
775.920	0.0162454
775.998	0.0164392
776.076	0.0164071
776.155	0.0163605
776.233	0.0163965
776.311	0.0163975
776.389	0.0164608
776.467	0.0164452
776.545	0.0163799
776.623	0.0163378
776.701	0.0163302
776.780	0.0162823
776.858	0.0163145
776.936	0.0162505
777.014	0.0164120
777.092	0.0162691
777.170	0.0162617
777.248	0.0163833
777.326	0.0165227
777.405	0.0164939
777.483	0.0165588
777.561	0.0165726
777.639	0.0166235
777.717	0.0167076
777.795	0.0168789
777.873	0.0168197
777.951	0.0169543
778.030	0.0169656
778.108	0.0169151
778.186	0.0168324
778.264	0.0169312
778.342	0.0167252
778.420	0.0169691
778.498	0.0168407
778.576	0.0166788
778.655	0.0167320
778.733	0.0165527
778.811	0.0166750
778.889	0.0164350
778.967	0.0163795
779.045	0.0163654
779.123	0.0162037
779.201	0.0163125
779.280	0.0163230
779.358	0.0162376
779.436	0.0162366
779.514	0.0162624
779.592	0.0162758
779.670	0.0162888
779.748	0.0162807
779.826	0.0162564
779.905	0.0161947
779.983	0.0162319
780.061	0.0161707
780.139	0.0164262
780.217	0.0163121
780.295	0.0163649
780.373	0.0163898
780.451	0.0162720
780.530	0.0163593
780.608	0.0164278
780.686	0.0164559
780.764	0.0164787
780.842	0.0163686
780.920	0.0163715
780.998	0.0164980
781.076	0.0164588
781.155	0.0165147
781.233	0.0164050
781.311	0.0164810
781.389	0.0164614
781.467	0.0166438
781.545	0.0164669
781.623	0.0164980
781.701	0.0165570
781.780	0.0164427
781.858	0.0164947
781.936	0.0166395
782.014	0.0166293
782.092	0.0165742
782.170	0.0166726
782.248	0.0167606
782.326	0.0166759
782.405	0.0166328
782.483	0.0165992
782.561	0.0168313
782.639	0.0167759
782.717	0.0168024
782.795	0.0169218
782.873	0.0169073
782.951	0.0168616
783.030	0.0168730
783.108	0.0169474
783.186	0.0169151
783.264	0.0167482
783.342	0.0168534
783.420	0.0169567
783.498	0.0168575
783.576	0.0168197
783.655	0.0167985
783.733	0.0167938
783.811	0.0167717
783.889	0.0166022
783.967	0.0165043
784.045	0.0165765
784.123	0.0165468
784.201	0.0166338
784.280	0.0163515
784.358	0.0163234
784.436	0.0163833
784.514	0.0162850
784.592	0.0164116
784.670	0.0165049
784.748	0.0162071
784.826	0.0162172
784.905	0.0162490
784.983	0.0163126
785.061	0.0164004
785.139	0.0163261
785.217	0.0162287
785.295	0.0162275
785.373	0.0163300
785.451	0.0162395
785.530	0.0162489
785.608	0.0160757
785.686	0.0162903
785.764	0.0162100
785.842	0.0163573
785.920	0.0163686
785.998	0.0163891
786.076	0.0163501
786.155	0.0163909
786.233	0.0163000
786.311	0.0163642
786.389	0.0165968
786.467	0.0165017
786.545	0.0164233
786.623	0.0166364
786.701	0.0167050
786.780	0.0165673
786.858	0.0166553
786.936	0.0167765
787.014	0.0166313
787.092	0.0167106
787.170	0.0167140
787.248	0.0168259
787.326	0.0170338
787.405	0.0169235
787.483	0.0167526
787.561	0.0168162
787.639	0.0168615
787.717	0.0167895
787.795	0.0168130
787.873	0.0168954
787.951	0.0168369
788.030	0.0167010
788.108	0.0169821
788.186	0.0168063
788.264	0.0166441
788.342	0.0167694
788.420	0.0167521
788.498	0.0166673
788.576	0.0166428
788.655	0.0165226
788.733	0.0165975
788.811	0.0165413
788.889	0.0165398
788.967	0.0166051
789.045	0.0164316
789.123	0.0163815
789.201	0.0163879
789.280	0.0162588
789.358	0.0163347
789.436	0.0163609
789.514	0.0162773
789.592	0.0162457
789.670	0.0162257
789.748	0.0162228
789.826	0.0163302
789.905	0.0161153
789.983	0.0163050
790.061	0.0164217
790.139	0.0163171
790.217	0.0163596
790.295	0.0164923
790.373	0.0164387
790.451	0.0165685
790.530	0.0166279
790.608	0.0166184
790.686	0.0167222
790.764	0.0167734
790.842	0.0170264
790.920	0.0169212
790.998	0.0169614
791.076	0.0170904
791.155	0.0169866
791.233	0.0169740
791.311	0.0170729
791.389	0.0171950
791.467	0.0171370
791.545	0.0170856
791.623	0.0171217
791.701	0.0171626
791.780	0.0169897
791.858	0.0169883
791.936	0.0167551
792.014	0.0167630
792.092	0.0167318
792.170	0.0166006
792.248	0.0164323
792.326	0.0164574
792.405	0.0163544
792.483	0.0163881
792.561	0.0162520
792.639	0.0161102
792.717	0.0160746
792.795	0.0159380
792.873	0.0159644
792.951	0.0160315
793.030	0.0160648
793.108	0.0159152
793.186	0.0160226
793.264	0.0160900
793.342	0.0160999
793.420	0.0160569
793.498	0.0163082
793.576	0.0163545
793.655	0.0164213
793.733	0.0162756
793.811	0.0164438
793.889	0.0164371
793.967	0.0165951
794.045	0.0165565
794.123	0.0166446
794.201	0.0165546
794.280	0.0164624
794.358	0.0166238
794.436	0.0164346
794.514	0.0165240
794.592	0.0165115
794.670	0.0165668
794.748	0.0164716
794.826	0.0165064
794.905	0.0164632
794.983	0.0165116
795.061	0.0166845
795.139	0.0165945
795.217	0.0167035
795.295	0.0167081
795.373	0.0168700
795.451	0.0168475
795.530	0.0170429
795.608	0.0170048
795.686	0.0170887
795.764	0.0171618
795.842	0.0172186
795.920	0.0172829
795.998	0.0174454
796.076	0.0173561
796.155	0.0174843
796.233	0.0174818
796.311	0.0175425
796.389	0.0176368
796.467	0.0174785
796.545	0.0174270
796.623	0.0173501
796.701	0.0174100
796.780	0.0172208
796.858	0.0171632
796.936	0.0170084
797.014	0.0168026
797.092	0.0167716
797.170	0.0165977
797.248	0.0163315
797.326	0.0161634
797.405	0.0159545
797.483	0.0158665
797.561	0.0159270
797.639	0.0157706
797.717	0.0155283
797.795	0.0155006
797.873	0.0153902
797.951	0.0154638
798.030	0.0154298
798.108	0.0155264
798.186	0.0154687
798.264	0.0155306
798.342	0.0155898
798.420	0.0157258
798.498	0.0157706
798.576	0.0159273
798.655	0.0161285
798.733	0.0161594
798.811	0.0161331
798.889	0.0162985
798.967	0.0165281
799.045	0.0165249
799.123	0.0165184
799.201	0.0165434
799.280	0.0166484
799.358	0.0166216
799.436	0.0166560
799.514	0.0167648
799.592	0.0168848
799.670	0.0167084
799.748	0.0166917
799.826	0.0168517
799.905	0.0168010
799.983	0.0167252
800.061	0.0167052
800.139	0.0168562
800.217	0.0168174
800.295	0.0167110
800.373	0.0168527
800.451	0.0170815
800.530	0.0169827
800.608	0.0171457
800.686	0.0171636
800.764	0.0171507
800.842	0.0172732
800.920	0.0172419
800.998	0.0173887
801.076	0.0174441
801.155	0.0173208
801.233	0.0174335
801.311	0.0174294
801.389	0.0174849
801.467	0.0173755
801.545	0.0170847
801.623	0.0171774
801.701	0.0171367
801.780	0.0168915
801.858	0.0168169
801.936	0.0166327
802.014	0.0164475
802.092	0.0162589
802.170	0.0162231
802.248	0.0160789
802.326	0.0159827
802.405	0.0158304
802.483	0.0156995
802.561	0.0156539
802.639	0.0156713
802.717	0.0157312
802.795	0.0156001
802.873	0.0154591
802.951	0.0154871
803.030	0.0156307
803.108	0.0155717
803.186	0.0157140
803.264	0.0158347
803.342	0.0157883
803.420	0.0157760
803.498	0.0160291
803.576	0.0159573
803.655	0.0162012
803.733	0.0162171
803.811	0.0162261
803.889	0.0162409
803.967	0.0163566
804.045	0.0163412
804.123	0.0164355
804.201	0.0164856
804.280	0.0163590
804.358	0.0164928
804.436	0.0165426
804.514	0.0165125
804.592	0.0165677
804.670	0.0166188
804.748	0.0165042
804.826	0.0165321
804.905	0.0166270
804.983	0.0165403
805.061	0.0167165
805.139	0.0166061
805.217	0.0164843
805.295	0.0165244
805.373	0.0167007
805.451	0.0166969
805.530	0.0167252
805.608	0.0166942
805.686	0.0168336
805.764	0.0170280
805.842	0.0168825
805.920	0.0170140
805.998	0.0170366
806.076	0.0171480
806.155	0.0171558
806.233	0.0171510
806.311	0.0172475
806.389	0.0172504
806.467	0.0173338
806.545	0.0172411
806.623	0.0172037
806.701	0.0172434
806.780	0.0173621
806.858	0.0171041
806.936	0.0171741
807.014	0.0170144
807.092	0.0170266
807.170	0.0170356
807.248	0.0169511
807.326	0.0167534
807.405	0.0167430
807.483	0.0168511
807.561	0.0165029
807.639	0.0164104
807.717	0.0164577
807.795	0.0163653
807.873	0.0161558
807.951	0.0161934
808.030	0.0160507
808.108	0.0160017
808.186	0.0159258
808.264	0.0158191
808.342	0.0158186
808.420	0.0158669
808.498	0.0157336
808.576	0.0156279
808.655	0.0158495
808.733	0.0158131
808.811	0.0156924
808.889	0.0156911
808.967	0.0157487
809.045	0.0158797
809.123	0.0158965
809.201	0.0158621
809.280	0.0159265
809.358	0.0159036
809.436	0.0159862
809.514	0.0159501
809.592	0.0161376
809.670	0.0161505
809.748	0.0163753
809.826	0.0162937
809.905	0.0164040
809.983	0.0163385
810.061	0.0162944
810.139	0.0165907
810.217	0.0165216
810.295	0.0165667
810.373	0.0167153
810.451	0.0166235
810.530	0.0167318
810.608	0.0168826
810.686	0.0168058
810.764	0.0168998
810.842	0.0170147
810.920	0.0170950
810.998	0.0169176
811.076	0.0172334
811.155	0.0172511
811.233	0.0171601
811.311	0.0172623
811.389	0.0171561
811.467	0.0173148
811.545	0.0172871
811.623	0.0174920
811.701	0.0171661
811.780	0.0172868
811.858	0.0173650
811.936	0.0174003
812.014	0.0171999
812.092	0.0172158
812.170	0.0170770
812.248	0.0171510
812.326	0.0171566
812.405	0.0171302
812.483	0.0170802
812.561	0.0169540
812.639	0.0170221
812.717	0.0170498
812.795	0.0168793
812.873	0.0167990
812.951	0.0167159
813.030	0.0166368
813.108	0.0165115
813.186	0.0163702
813.264	0.0163398
813.342	0.0163143
813.420	0.0161034
813.498	0.0160299
813.576	0.0159196
813.655	0.0157242
813.733	0.0156651
813.811	0.0155891
813.889	0.0156116
813.967	0.0156608
814.045	0.0155132
814.123	0.0156385
814.201	0.0155553
814.280	0.0156052
814.358	0.0155318
814.436	0.0158106
814.514	0.0158472
814.592	0.0158672
814.670	0.0159266
814.748	0.0160723
814.826	0.0162685
814.905	0.0162485
814.983	0.0163640
815.061	0.0164589
815.139	0.0166042
815.217	0.0167232
815.295	0.0167604
815.373	0.0168762
815.451	0.0167381
815.530	0.0168084
815.608	0.0167443
815.686	0.0168669
815.764	0.0168445
815.842	0.0168085
815.920	0.0168868
815.998	0.0169411
816.076	0.0167873
816.155	0.0168004
816.233	0.0168094
816.311	0.0169167
816.389	0.0168844
816.467	0.0167334
816.545	0.0167777
816.623	0.0169171
816.701	0.0168462
816.780	0.0168484
816.858	0.0169006
816.936	0.0169835
817.014	0.0168704
817.092	0.0169968
817.170	0.0170991
817.248	0.0169333
817.326	0.0170296
817.405	0.0172564
817.483	0.0172865
817.561	0.0172272
817.639	0.0170882
817.717	0.0170851
817.795	0.0172386
817.873	0.0171259
817.951	0.0170403
818.030	0.0169463
818.108	0.0169106
818.186	0.0166943
818.264	0.0166601
818.342	0.0165417
818.420	0.0165343
818.498	0.0163783
818.576	0.0162851
818.655	0.0162239
818.733	0.0160153
818.811	0.0160274
818.889	0.0159368
818.967	0.0158389
819.045	0.0158140
819.123	0.0158189
819.201	0.0158229
819.280	0.0158321
819.358	0.0159223
819.436	0.0160889
819.514	0.0161269
819.592	0.0161824
819.670	0.0162848
819.748	0.0161128
819.826	0.0164231
819.905	0.0163486
819.983	0.0163180
820.061	0.0162935
820.139	0.0165176
820.217	0.0166538
820.295	0.0167017
820.373	0.0166665
820.451	0.0166582
820.530	0.0168575
820.608	0.0167338
820.686	0.0166370
820.764	0.0166702
820.842	0.0167762
820.920	0.0166218
820.998	0.0166547
821.076	0.0167094
821.155	0.0167874
821.233	0.0167162
821.311	0.0167204
821.389	0.0166756
821.467	0.0167477
821.545	0.0166225
821.623	0.0166265
821.701	0.0166537
821.780	0.0166556
821.858	0.0165679
821.936	0.0167985
822.014	0.0166903
822.092	0.0167365
822.170	0.0166219
822.248	0.0166883
822.326	0.0167796
822.405	0.0166251
822.483	0.0167545
822.561	0.0167883
822.639	0.0169386
822.717	0.0168195
822.795	0.0169192
822.873	0.0167576
822.951	0.0168187
823.030	0.0169720
823.108	0.0167355
823.186	0.0166994
823.264	0.0167243
823.342	0.0166779
823.420	0.0165916
823.498	0.0167167
823.576	0.0165851
823.655	0.0164532
823.733	0.0163745
823.811	0.0162903
823.889	0.0163635
823.967	0.0163186
824.045	0.0161797
824.123	0.0161118
824.201	0.0161908
824.280	0.0160998
824.358	0.0160609
824.436	0.0161993
824.514	0.0160802
824.592	0.0160477
824.670	0.0161149
824.748	0.0159686
824.826	0.0160972
824.905	0.0161418
824.983	0.0161691
825.061	0.0161539
825.139	0.0162528
825.217	0.0163226
825.295	0.0162640
825.373	0.0164211
825.451	0.0163451
825.530	0.0165389
825.608	0.0164179
825.686	0.0165401
825.764	0.0166192
825.842	0.0166969
825.920	0.0166286
825.998	0.0166122
826.076	0.0168671
826.155	0.0167625
826.233	0.0167371
826.311	0.0169632
826.389	0.0168494
826.467	0.0167684
826.545	0.0168360
826.623	0.0168815
826.701	0.0169076
826.780	0.0168684
826.858	0.0168819
826.936	0.0168604
827.014	0.0167345
827.092	0.0167545
827.170	0.0166041
827.248	0.0165966
827.326	0.0166738
827.405	0.0166489
827.483	0.0165189
827.561	0.0165388
827.639	0.0163435
827.717	0.0165476
827.795	0.0165997
827.873	0.0164857
827.951	0.0164463
828.030	0.0163858
828.108	0.0163412
828.186	0.0165426
828.264	0.0164563
828.342	0.0163074
828.420	0.0164914
828.498	0.0164137
828.576	0.0163911
828.655	0.0164110
828.733	0.0162170
828.811	0.0162782
828.889	0.0163311
828.967	0.0163489
829.045	0.0162178
829.123	0.0161311
829.201	0.0162392
829.280	0.0161792
829.358	0.0162714
829.436	0.0162532
829.514	0.0162346
829.592	0.0162534
829.670	0.0162273
829.748	0.0162756
829.826	0.0163604
829.905	0.0164340
829.983	0.0164465
830.061	0.0163665
830.139	0.0163465
830.217	0.0164491
830.295	0.0164908
830.373	0.0165437
830.451	0.0167302
830.530	0.0166377
830.608	0.0167614
830.686	0.0167508
830.764	0.0167089
830.842	0.0166441
830.920	0.0167152
830.998	0.0168183
831.076	0.0168029
831.155	0.0167416
831.233	0.0168048
831.311	0.0166923
831.389	0.0166789
831.467	0.0166723
831.545	0.0167709
831.623	0.0167926
831.701	0.0167324
831.780	0.0168063
831.858	0.0166427
831.936	0.0165777
832.014	0.0165908
832.092	0.0166035
832.170	0.0165460
832.248	0.0165971
832.326	0.0164662
832.405	0.0164964
832.483	0.0163408
832.561	0.0163596
832.639	0.0165157
832.717	0.0163824
832.795	0.0164079
832.873	0.0163057
832.951	0.0163340
833.030	0.0163136
833.108	0.0162571
833.186	0.0163492
833.264	0.0163539
833.342	0.0163329
833.420	0.0164848
833.498	0.0162208
833.576	0.0164024
833.655	0.0164590
833.733	0.0164716
833.811	0.0163369
833.889	0.0164603
833.967	0.0164191
834.045	0.0165011
834.123	0.0163223
834.201	0.0163825
834.280	0.0164060
834.358	0.0164902
834.436	0.0165510
834.514	0.0164848
834.592	0.0164557
834.670	0.0164420
834.748	0.0163434
834.826	0.0163868
834.905	0.0164559
834.983	0.0164731
835.061	0.0165780
835.139	0.0165244
835.217	0.0165904
835.295	0.0164577
835.373	0.0165376
835.451	0.0165645
835.530	0.0166539
835.608	0.0166036
835.686	0.0166357
835.764	0.0166399
835.842	0.0167146
835.920	0.0166219
835.998	0.0166522
836.076	0.0167990
836.155	0.0168134
836.233	0.0167030
836.311	0.0166796
836.389	0.0167577
836.467	0.0168866
836.545	0.0168000
836.623	0.0167117
836.701	0.0168285
836.780	0.0167941
836.858	0.0166580
836.936	0.0166651
837.014	0.0166685
837.092	0.0166754
837.170	0.0166438
837.248	0.0166644
837.326	0.0166019
837.405	0.0166585
837.483	0.0164907
837.561	0.0166209
837.639	0.0165616
837.717	0.0164468
837.795	0.0164136
837.873	0.0164350
837.951	0.0164296
838.030	0.0164299
838.108	0.0163589
838.186	0.0164061
838.264	0.0164816
838.342	0.0163629
838.420	0.0163348
838.498	0.0162969
838.576	0.0164451
838.655	0.0163867
838.733	0.0162708
838.811	0.0163159
838.889	0.0163749
838.967	0.0163542
839.045	0.0162708
839.123	0.0163734
839.201	0.0164165
839.280	0.0163774
839.358	0.0163476
839.436	0.0162466
839.514	0.0164129
839.592	0.0164648
839.670	0.0165430
839.748	0.0164486
839.826	0.0164661
839.905	0.0165382
839.983	0.0164695
840.061	0.0164745
840.139	0.0166195
840.217	0.0166364
840.295	0.0166418
840.373	0.0166727
840.451	0.0165574
840.530	0.0166292
840.608	0.0166862
840.686	0.0166190
840.764	0.0166299
840.842	0.0166255
840.920	0.0166837
840.998	0.0166856
841.076	0.0165913
841.155	0.0167373
841.233	0.0166681
841.311	0.0166205
841.389	0.0165157
841.467	0.0166161
841.545	0.0166180
841.623	0.0167181
841.701	0.0166273
841.780	0.0167049
841.858	0.0166499
841.936	0.0168348
842.014	0.0167899
842.092	0.0167815
842.170	0.0168185
842.248	0.0169405
842.326	0.0169188
842.405	0.0169708
842.483	0.0168799
842.561	0.0169081
842.639	0.0168732
842.717	0.0169597
842.795	0.0169896
842.873	0.0168845
842.951	0.0168288
843.030	0.0166074
843.108	0.0166586
843.186	0.0167905
843.264	0.0165973
843.342	0.0165591
843.420	0.0164158
843.498	0.0164230
843.576	0.0164668
843.655	0.0163857
843.733	0.0163450
843.811	0.0163524
843.889	0.0163469
843.967	0.0164036
844.045	0.0161382
844.123	0.0163783
844.201	0.0163176
844.280	0.0163439
844.358	0.0163379
844.436	0.0162770
844.514	0.0162327
844.592	0.0163870
844.670	0.0163529
844.748	0.0163765
844.826	0.0163873
844.905	0.0163958
844.983	0.0162717
845.061	0.0163564
845.139	0.0165089
845.217	0.0164450
845.295	0.0165412
845.373	0.0163604
845.451	0.0164731
845.530	0.0164485
845.608	0.0163876
845.686	0.0165463
845.764	0.0164779
845.842	0.0163540
845.920	0.0163496
845.998	0.0163486
846.076	0.0164951
846.155	0.0165265
846.233	0.0164830
846.311	0.0164310
846.389	0.0166161
846.467	0.0165877
846.545	0.0166096
846.623	0.0165306
846.701	0.0165374
846.780	0.0166522
846.858	0.0166674
846.936	0.0166556
847.014	0.0165800
847.092	0.0166753
847.170	0.0168618
847.248	0.0167011
847.326	0.0165804
847.405	0.0168265
847.483	0.0168941
847.561	0.0169328
847.639	0.0167956
847.717	0.0168070
847.795	0.0168891
847.873	0.0167992
847.951	0.0169741
848.030	0.0168327
848.108	0.0168208
848.186	0.0168460
848.264	0.0166909
848.342	0.0166992
848.420	0.0167884
848.498	0.0166631
848.576	0.0167709
848.655	0.0165639
848.733	0.0166215
848.811	0.0165473
848.889	0.0165162
848.967	0.0164848
849.045	0.0165346
849.123	0.0164201
849.201	0.0163667
849.280	0.0163589
849.358	0.0164006
849.436	0.0163036
849.514	0.0163181
849.592	0.0163472
849.670	0.0163467
849.748	0.0163400
849.826	0.0163128
849.905	0.0163297
849.983	0.0164928
850.061	0.0165773
850.139	0.0165292
850.217	0.0163667
850.295	0.0164605
850.373	0.0164834
850.451	0.0164380
850.530	0.0163180
850.608	0.0165092
850.686	0.0167235
850.764	0.0165234
850.842	0.0165067
850.920	0.0165191
850.998	0.0165113
851.076	0.0164498
851.155	0.0163816
851.233	0.0164979
851.311	0.0163361
851.389	0.0164365
851.467	0.0164764
851.545	0.0163966
851.623	0.0163482
851.701	0.0164956
851.780	0.0164014
851.858	0.0164280
851.936	0.0165240
852.014	0.0163953
852.092	0.0164358
852.170	0.0166132
852.248	0.0166029
852.326	0.0164989
852.405	0.0167738
852.483	0.0166013
852.561	0.0166367
852.639	0.0165784
852.717	0.0166608
852.795	0.0167474
852.873	0.0165786
852.951	0.0166646
853.030	0.0166709
853.108	0.0166540
853.186	0.0168103
853.264	0.0167202
853.342	0.0168086
853.420	0.0167864
853.498	0.0167479
853.576	0.0166985
853.655	0.0167424
853.733	0.0167960
853.811	0.0165784
853.889	0.0167847
853.967	0.0166158
854.045	0.0167703
854.123	0.0168578
854.201	0.0167601
854.280	0.0166830
854.358	0.0167959
854.436	0.0165790
854.514	0.0166082
854.592	0.0167244
854.670	0.0165888
854.748	0.0166386
854.826	0.0166313
854.905	0.0166607
854.983	0.0164731
855.061	0.0163946
855.139	0.0163714
855.217	0.0165476
855.295	0.0164798
855.373	0.0162432
855.451	0.0162983
855.530	0.0163998
855.608	0.0162871
855.686	0.0161920
855.764	0.0163753
855.842	0.0163998
855.920	0.0162872
855.998	0.0164610
856.076	0.0164478
856.155	0.0163488
856.233	0.0164496
856.311	0.0164816
856.389	0.0164568
856.467	0.0165759
856.545	0.0165273
856.623	0.0164349
856.701	0.0164351
856.780	0.0163498
856.858	0.0163656
856.936	0.0165427
857.014	0.0163869
857.092	0.0163012
857.170	0.0165049
857.248	0.0163275
857.326	0.0164954
857.405	0.0164445
857.483	0.0163947
857.561	0.0163027
857.639	0.0164945
857.717	0.0165453
857.795	0.0165145
857.873	0.0165638
857.951	0.0164497
858.030	0.0164812
858.108	0.0166380
858.186	0.0165805
858.264	0.0166227
858.342	0.0165559
858.420	0.0165691
858.498	0.0166710
858.576	0.0165610
858.655	0.0166833
858.733	0.0166073
858.811	0.0167028
858.889	0.0167474
858.967	0.0167474
859.045	0.0167914
859.123	0.0168237
859.201	0.0166753
859.280	0.0165779
859.358	0.0166654
859.436	0.0166007
859.514	0.0165815
859.592	0.0165997
859.670	0.0167145
859.748	0.0166615
859.826	0.0165430
859.905	0.0165881
859.983	0.0165859
860.061	0.0165591
860.139	0.0166396
860.217	0.0166056
860.295	0.0164847
860.373	0.0165441
860.451	0.0165257
860.530	0.0164733
860.608	0.0164088
860.686	0.0165128
860.764	0.0164672
860.842	0.0164584
860.920	0.0165967
860.998	0.0165929
861.076	0.0164552
861.155	0.0163290
861.233	0.0165656
861.311	0.0165929
861.389	0.0166256
861.467	0.0165784
861.545	0.0164978
861.623	0.0164990
861.701	0.0165056
861.780	0.0166180
861.858	0.0165794
861.936	0.0164682
862.014	0.0165322
862.092	0.0166468
862.170	0.0164187
862.248	0.0165993
862.326	0.0166808
862.405	0.0165204
862.483	0.0164931
862.561	0.0165961
862.639	0.0166169
862.717	0.0165927
862.795	0.0166453
862.873	0.0166373
862.951	0.0166154
863.030	0.0166376
863.108	0.0166568
863.186	0.0166548
863.264	0.0166952
863.342	0.0166625
863.420	0.0166475
863.498	0.0166838
863.576	0.0166692
863.655	0.0165723
863.733	0.0166518
863.811	0.0164616
863.889	0.0165167
863.967	0.0163879
864.045	0.0163934
864.123	0.0164618
864.201	0.0166145
864.280	0.0166458
864.358	0.0163946
864.436	0.0162635
864.514	0.0165098
864.592	0.0163931
864.670	0.0164556
864.748	0.0165157
864.826	0.0163921
864.905	0.0165830
864.983	0.0165172
865.061	0.0164777
865.139	0.0165055
865.217	0.0165746
865.295	0.0166325
865.373	0.0164249
865.451	0.0164531
865.530	0.0165099
865.608	0.0165257
865.686	0.0167177
865.764	0.0165310
865.842	0.0164948
865.920	0.0165385
865.998	0.0166578
866.076	0.0165738
866.155	0.0166111
866.233	0.0165407
866.311	0.0167941
866.389	0.0166666
866.467	0.0166673
866.545	0.0166818
866.623	0.0166924
866.701	0.0167881
866.780	0.0168288
866.858	0.0166505
866.936	0.0164901
867.014	0.0166051
867.092	0.0164965
867.170	0.0166706
867.248	0.0165639
867.326	0.0165421
867.405	0.0165778
867.483	0.0165646
867.561	0.0165209
867.639	0.0164261
867.717	0.0164869
867.795	0.0164745
867.873	0.0165285
867.951	0.0165292
868.030	0.0164401
868.108	0.0164028
868.186	0.0165376
868.264	0.0164725
868.342	0.0163541
868.420	0.0164525
868.498	0.0163975
868.576	0.0164310
868.655	0.0164069
868.733	0.0163995
868.811	0.0164841
868.889	0.0164764
868.967	0.0164513
869.045	0.0166171
869.123	0.0165054
869.201	0.0165231
869.280	0.0165395
869.358	0.0164553
869.436	0.0163998
869.514	0.0167223
869.592	0.0168551
869.670	0.0165830
869.748	0.0166573
869.826	0.0165027
869.905	0.0167583
869.983	0.0166732
870.061	0.0166785
870.139	0.0165886
870.217	0.0165563
870.295	0.0165398
870.373	0.0168449
870.451	0.0165981
870.530	0.0167316
870.608	0.0167327
870.686	0.0164929
870.764	0.0166216
870.842	0.0165905
870.920	0.0166673
870.998	0.0166653
871.076	0.0166541
871.155	0.0166587
871.233	0.0165936
871.311	0.0166661
871.389	0.0167650
871.467	0.0166920
871.545	0.0166496
871.623	0.0165689
871.701	0.0166715
871.780	0.0166301
871.858	0.0165118
871.936	0.0165534
872.014	0.0165672
872.092	0.0164661
872.170	0.0165289
872.248	0.0164703
872.326	0.0163667
872.405	0.0163080
872.483	0.0163828
872.561	0.0164030
872.639	0.0164017
872.717	0.0162829
872.795	0.0163966
872.873	0.0163349
872.951	0.0164704
873.030	0.0164635
873.108	0.0164310
873.186	0.0163777
873.264	0.0163393
873.342	0.0164423
873.420	0.0163801
873.498	0.0165257
873.576	0.0165276
873.655	0.0166155
873.733	0.0166261
873.811	0.0165437
873.889	0.0166334
873.967	0.0166359
874.045	0.0165073
874.123	0.0166030
874.201	0.0167325
874.280	0.0166514
874.358	0.0165955
874.436	0.0165820
874.514	0.0167812
874.592	0.0164858
874.670	0.0165965
874.748	0.0166685
874.826	0.0167495
874.905	0.0167059
874.983	0.0165012
875.061	0.0166273
875.139	0.0165836
875.217	0.0165924
875.295	0.0167736
875.373	0.0165257
875.451	0.0165773
875.530	0.0166217
875.608	0.0167248
875.686	0.0165527
875.764	0.0165391
875.842	0.0163176
875.920	0.0165820
875.998	0.0166125
876.076	0.0165317
876.155	0.0164794
876.233	0.0166411
876.311	0.0165256
876.389	0.0164240
876.467	0.0164284
876.545	0.0164407
876.623	0.0163302
876.701	0.0163927
876.780	0.0164740
876.858	0.0163719
876.936	0.0163365
877.014	0.0164028
877.092	0.0164730
877.170	0.0164376
877.248	0.0164252
877.326	0.0165827
877.405	0.0164639
877.483	0.0164232
877.561	0.0164726
877.639	0.0165221
877.717	0.0165138
877.795	0.0166303
877.873	0.0166839
877.951	0.0167004
878.030	0.0167201
878.108	0.0166775
878.186	0.0166270
878.264	0.0165979
878.342	0.0166484
878.420	0.0166053
878.498	0.0166563
878.576	0.0166148
878.655	0.0167030
878.733	0.0167229
878.811	0.0167222
878.889	0.0165075
878.967	0.0166165
879.045	0.0166119
879.123	0.0166120
879.201	0.0165522
879.280	0.0165423
879.358	0.0165286
879.436	0.0164133
879.514	0.0164088
879.592	0.0163783
879.670	0.0165046
879.748	0.0165450
879.826	0.0164015
879.905	0.0164733
879.983	0.0162934
880.061	0.0163763
880.139	0.0163473
880.217	0.0162696
880.295	0.0164568
880.373	0.0165014
880.451	0.0163241
880.530	0.0164336
880.608	0.0164722
880.686	0.0164941
880.764	0.0163802
880.842	0.0164079
880.920	0.0164442
880.998	0.0164885
881.076	0.0164116
881.155	0.0165056
881.233	0.0166183
881.311	0.0165791
881.389	0.0166264
881.467	0.0165911
881.545	0.0165772
881.623	0.0167138
881.701	0.0165633
881.780	0.0167020
881.858	0.0167186
881.936	0.0166364
882.014	0.0166498
882.092	0.0166256
882.170	0.0166254
882.248	0.0166891
882.326	0.0165941
882.405	0.0165867
882.483	0.0166057
882.561	0.0166389
882.639	0.0166579
882.717	0.0166215
882.795	0.0165224
882.873	0.0166736
882.951	0.0166373
883.030	0.0165955
883.108	0.0166279
883.186	0.0165355
883.264	0.0165312
883.342	0.0165948
883.420	0.0166034
883.498	0.0164005
883.576	0.0163875
883.655	0.0165760
883.733	0.0164787
883.811	0.0164809
883.889	0.0163361
883.967	0.0164504
884.045	0.0165041
884.123	0.0164764
884.201	0.0163883
884.280	0.0164669
884.358	0.0163539
884.436	0.0163430
884.514	0.0164220
884.592	0.0165499
884.670	0.0164629
884.748	0.0164957
884.826	0.0165495
884.905	0.0165701
884.983	0.0165186
885.061	0.0166160
885.139	0.0165806
885.217	0.0165739
885.295	0.0166572
885.373	0.0166373
885.451	0.0166944
885.530	0.0167271
885.608	0.0168211
885.686	0.0168176
885.764	0.0168666
885.842	0.0168070
885.920	0.0168771
885.998	0.0168992
886.076	0.0170129
886.155	0.0169685
886.233	0.0169095
886.311	0.0168237
886.389	0.0168021
886.467	0.0168139
886.545	0.0167561
886.623	0.0166290
886.701	0.0165781
886.780	0.0166512
886.858	0.0165296
886.936	0.0163577
887.014	0.0163888
887.092	0.0163216
887.170	0.0161073
887.248	0.0162290
887.326	0.0160336
887.405	0.0160624
887.483	0.0160730
887.561	0.0161871
887.639	0.0161192
887.717	0.0161640
887.795	0.0162080
887.873	0.0161013
887.951	0.0162976
888.030	0.0163435
888.108	0.0163551
888.186	0.0165070
888.264	0.0166602
888.342	0.0165763
888.420	0.0165269
888.498	0.0166499
888.576	0.0166875
888.655	0.0167342
888.733	0.0167587
888.811	0.0167999
888.889	0.0168193
888.967	0.0165827
889.045	0.0166029
889.123	0.0167240
889.201	0.0166361
889.280	0.0165637
889.358	0.0164721
889.436	0.0164857
889.514	0.0165457
889.592	0.0165562
889.670	0.0164824
889.748	0.0164387
889.826	0.0165668
889.905	0.0163966
889.983	0.0164051
890.061	0.0165684
890.139	0.0164817
890.217	0.0166052
890.295	0.0167281
890.373	0.0165616
890.451	0.0167271
890.530	0.0167780
890.608	0.0167957
890.686	0.0168577
890.764	0.0168381
890.842	0.0169968
890.920	0.0170042
890.998	0.0169687
891.076	0.0169571
891.155	0.0170432
891.233	0.0169537
891.311	0.0167206
891.389	0.0167426
891.467	0.0167157
891.545	0.0165898
891.623	0.0165736
891.701	0.0165131
891.780	0.0164674
891.858	0.0162700
891.936	0.0161457
892.014	0.0162137
892.092	0.0161044
892.170	0.0159362
892.248	0.0160455
892.326	0.0159119
892.405	0.0160105
892.483	0.0160229
892.561	0.0160526
892.639	0.0162649
892.717	0.0161517
892.795	0.0162730
892.873	0.0161653
892.951	0.0162961
893.030	0.0165569
893.108	0.0166353
893.186	0.0166040
893.264	0.0167063
893.342	0.0167101
893.420	0.0167330
893.498	0.0167879
893.576	0.0166931
893.655	0.0168066
893.733	0.0167871
893.811	0.0167715
893.889	0.0167663
893.967	0.0166122
894.045	0.0165880
894.123	0.0164900
894.201	0.0165258
894.280	0.0164552
894.358	0.0164147
894.436	0.0164009
894.514	0.0165018
894.592	0.0163623
894.670	0.0163564
894.748	0.0165418
894.826	0.0165849
894.905	0.0163654
894.983	0.0164672
895.061	0.0166334
895.139	0.0166425
895.217	0.0164971
895.295	0.0165295
895.373	0.0166250
895.451	0.0167675
895.530	0.0167371
895.608	0.0166058
895.686	0.0167518
895.764	0.0169195
895.842	0.0167965
895.920	0.0167718
895.998	0.0167558
896.076	0.0166826
896.155	0.0166035
896.233	0.0166554
896.311	0.0165842
896.389	0.0165028
896.467	0.0164633
896.545	0.0164359
896.623	0.0164439
896.701	0.0164546
896.780	0.0164026
896.858	0.0162470
896.936	0.0164851
897.014	0.0164471
897.092	0.0164561
897.170	0.0164336
897.248	0.0164069
897.326	0.0163789
897.405	0.0164981
897.483	0.0164409
897.561	0.0166183
897.639	0.0164839
897.717	0.0166006
897.795	0.0166644
897.873	0.0166347
897.951	0.0167030
898.030	0.0168420
898.108	0.0167968
898.186	0.0167744
898.264	0.0168456
898.342	0.0168954
898.420	0.0169621
898.498	0.0168646
898.576	0.0169522
898.655	0.0168234
898.733	0.0168497
898.811	0.0167212
898.889	0.0168017
898.967	0.0166738
899.045	0.0166176
899.123	0.0166129
899.201	0.0166551
899.280	0.0163779
899.358	0.0165402
899.436	0.0163058
899.514	0.0162659
899.592	0.0163106
899.670	0.0162521
899.748	0.0161981
899.826	0.0163013
899.905	0.0162965
899.983	0.0163423
900.061	0.0161348
900.139	0.0162753
900.217	0.0162412
900.295	0.0161658
900.373	0.0163118
900.451	0.0164671
900.530	0.0163656
900.608	0.0162659
900.686	0.0164613
900.764	0.0167101
900.842	0.0166144
900.920	0.0165826
900.998	0.0165801
901.076	0.0166626
901.155	0.0166933
901.233	0.0169194
901.311	0.0167226
901.389	0.0169118
901.467	0.0169992
901.545	0.0170173
901.623	0.0169382
901.701	0.0170547
901.780	0.0169491
901.858	0.0168456
901.936	0.0168996
902.014	0.0168198
902.092	0.0167262
902.170	0.0167354
902.248	0.0167683
902.326	0.0166440
902.405	0.0166566
902.483	0.0166317
902.561	0.0165806
902.639	0.0165430
902.717	0.0163532
902.795	0.0164297
902.873	0.0162006
902.951	0.0162482
903.030	0.0163251
903.108	0.0162938
903.186	0.0164235
903.264	0.0162977
903.342	0.0162328
903.420	0.0161852
903.498	0.0162407
903.576	0.0161693
903.655	0.0161185
903.733	0.0160487
903.811	0.0162286
903.889	0.0164915
903.967	0.0162546
904.045	0.0163549
904.123	0.0165067
904.201	0.0163994
904.280	0.0163361
904.358	0.0164457
904.436	0.0164477
904.514	0.0165439
904.592	0.0166396
904.670	0.0165073
904.748	0.0165353
904.826	0.0167658
904.905	0.0167224
904.983	0.0165932
905.061	0.0167468
905.139	0.0167181
905.217	0.0167572
905.295	0.0166941
905.373	0.0167191
905.451	0.0166902
905.530	0.0167111
905.608	0.0165752
905.686	0.0167857
905.764	0.0167487
905.842	0.0167694
905.920	0.0165720
905.998	0.0167860
906.076	0.0166920
906.155	0.0167586
906.233	0.0168510
906.311	0.0167458
906.389	0.0166674
906.467	0.0167011
906.545	0.0165891
906.623	0.0166713
906.701	0.0166597
906.780	0.0167396
906.858	0.0166856
906.936	0.0164816
907.014	0.0165155
907.092	0.0165065
907.170	0.0164632
907.248	0.0164030
907.326	0.0163900
907.405	0.0164668
907.483	0.0163293
907.561	0.0163194
907.639	0.0161691
907.717	0.0161311
907.795	0.0161546
907.873	0.0163038
907.951	0.0162003
908.030	0.0162051
908.108	0.0162905
908.186	0.0163100
908.264	0.0162218
908.342	0.0162727
908.420	0.0163049
908.498	0.0163106
908.576	0.0163045
908.655	0.0163783
908.733	0.0163598
908.811	0.0164828
908.889	0.0165137
908.967	0.0165462
909.045	0.0165559
909.123	0.0165604
909.201	0.0166975
909.280	0.0166833
909.358	0.0166983
909.436	0.0168200
909.514	0.0168107
909.592	0.0167329
909.670	0.0168639
909.748	0.0168283
909.826	0.0169407
909.905	0.0169286
909.983	0.0169349
910.061	0.0169308
910.139	0.0168189
910.217	0.0167397
910.295	0.0168796
910.373	0.0166498
910.451	0.0166095
910.530	0.0165282
910.608	0.0165323
910.686	0.0166139
910.764	0.0165283
910.842	0.0165157
910.920	0.0163926
910.998	0.0163709
911.076	0.0164838
911.155	0.0163713
911.233	0.0164689
911.311	0.0164938
911.389	0.0164569
911.467	0.0164998
911.545	0.0165617
911.623	0.0165353
911.701	0.0164649
911.780	0.0165092
911.858	0.0165051
911.936	0.0165798
912.014	0.0163990
912.092	0.0162747
912.170	0.0165554
912.248	0.0163982
912.326	0.0166121
912.405	0.0164133
912.483	0.0163205
912.561	0.0163726
912.639	0.0163045
912.717	0.0162997
912.795	0.0162278
912.873	0.0161864
912.951	0.0161723
913.030	0.0161645
913.108	0.0162414
913.186	0.0161848
913.264	0.0162204
913.342	0.0161504
913.420	0.0162239
913.498	0.0162855
913.576	0.0162405
913.655	0.0164045
913.733	0.0164530
913.811	0.0164269
913.889	0.0165482
913.967	0.0165549
914.045	0.0166212
914.123	0.0167011
914.201	0.0167408
914.280	0.0166981
914.358	0.0166518
914.436	0.0167709
914.514	0.0168213
914.592	0.0168069
914.670	0.0169105
914.748	0.0168417
914.826	0.0168574
914.905	0.0168577
914.983	0.0168807
915.061	0.0166979
915.139	0.0168477
915.217	0.0168978
915.295	0.0167673
915.373	0.0167141
915.451	0.0165651
915.530	0.0165075
915.608	0.0165387
915.686	0.0164198
915.764	0.0165068
915.842	0.0164414
915.920	0.0163901
915.998	0.0162582
916.076	0.0163275
916.155	0.0162893
916.233	0.0162924
916.311	0.0162550
916.389	0.0162570
916.467	0.0163052
916.545	0.0162188
916.623	0.0162509
916.701	0.0163081
916.780	0.0164321
916.858	0.0164125
916.936	0.0164514
917.014	0.0164115
917.092	0.0163937
917.170	0.0164931
917.248	0.0164660
917.326	0.0163877
917.405	0.0165221
917.483	0.0166966
917.561	0.0165967
917.639	0.0166049
917.717	0.0165291
917.795	0.0164773
917.873	0.0164413
917.951	0.0165663
918.030	0.0166322
918.108	0.0164759
918.186	0.0163409
918.264	0.0164647
918.342	0.0164420
918.420	0.0163680
918.498	0.0163612
918.576	0.0164113
918.655	0.0162722
918.733	0.0164544
918.811	0.0163860
918.889	0.0164348
918.967	0.0164472
919.045	0.0163003
919.123	0.0164097
919.201	0.0164542
919.280	0.0164415
919.358	0.0164052
919.436	0.0164314
919.514	0.0167937
919.592	0.0166315
919.670	0.0166209
919.748	0.0166222
919.826	0.0165667
919.905	0.0165848
919.983	0.0169118
920.061	0.0168207
920.139	0.0166117
920.217	0.0167101
920.295	0.0166051
920.373	0.0166884
920.451	0.0166740
920.530	0.0165134
920.608	0.0165691
920.686	0.0165390
920.764	0.0165392
920.842	0.0166235
920.920	0.0164245
920.998	0.0165566
921.076	0.0164751
921.155	0.0166833
921.233	0.0164910
921.311	0.0164149
921.389	0.0164629
921.467	0.0164586
921.545	0.0164999
921.623	0.0166131
921.701	0.0164754
921.780	0.0166313
921.858	0.0164753
921.936	0.0165835
922.014	0.0167026
922.092	0.0164816
922.170	0.0166014
922.248	0.0165092
922.326	0.0167226
922.405	0.0166840
922.483	0.0165183
922.561	0.0167039
922.639	0.0167125
922.717	0.0165696
922.795	0.0165372
922.873	0.0164850
922.951	0.0165372
923.030	0.0165728
923.108	0.0165126
923.186	0.0165945
923.264	0.0164215
923.342	0.0164040
923.420	0.0164853
923.498	0.0164241
923.576	0.0164477
923.655	0.0165050
923.733	0.0164294
923.811	0.0163664
923.889	0.0162943
923.967	0.0164247
924.045	0.0163061
924.123	0.0164142
924.201	0.0164333
924.280	0.0162467
924.358	0.0163968
924.436	0.0165038
924.514	0.0163918
924.592	0.0164352
924.670	0.0166702
924.748	0.0164259
924.826	0.0164470
924.905	0.0165366
924.983	0.0165281
925.061	0.0165204
925.139	0.0165809
925.217	0.0166199
925.295	0.0165755
925.373	0.0166562
925.451	0.0165796
925.530	0.0165232
925.608	0.0166557
925.686	0.0166081
925.764	0.0166550
925.842	0.0164498
925.920	0.0165658
925.998	0.0166444
926.076	0.0165373
926.155	0.0163129
926.233	0.0163715
926.311	0.0164288
926.389	0.0165062
926.467	0.0163573
926.545	0.0163672
926.623	0.0163004
926.701	0.0163923
926.780	0.0164617
926.858	0.0163169
926.936	0.0163954
927.014	0.0165216
927.092	0.0163922
927.170	0.0164976
927.248	0.0164664
927.326	0.0164705
927.405	0.0165229
927.483	0.0166800
927.561	0.0167361
927.639	0.0167077
927.717	0.0167702
927.795	0.0168497
927.873	0.0166606
927.951	0.0167540
928.030	0.0167237
928.108	0.0167476
928.186	0.0166657
928.264	0.0166443
928.342	0.0165636
928.420	0.0164452
928.498	0.0166275
928.576	0.0166634
928.655	0.0164867
928.733	0.0164555
928.811	0.0165306
928.889	0.0163624
928.967	0.0163382
929.045	0.0165366
929.123	0.0163306
929.201	0.0163367
929.280	0.0162597
929.358	0.0165233
929.436	0.0163909
929.514	0.0163602
929.592	0.0162440
929.670	0.0163513
929.748	0.0163371
929.826	0.0163975
929.905	0.0163781
929.983	0.0165484
930.061	0.0165359
930.139	0.0164953
930.217	0.0164814
930.295	0.0165523
930.373	0.0167017
930.451	0.0165609
930.530	0.0165371
930.608	0.0165968
930.686	0.0164906
930.764	0.0165669
930.842	0.0164603
930.920	0.0164359
930.998	0.0164497
931.076	0.0163784
931.155	0.0163892
931.233	0.0163750
931.311	0.0163018
931.389	0.0162580
931.467	0.0163300
931.545	0.0163112
931.623	0.0163109
931.701	0.0162309
931.780	0.0164345
931.858	0.0163655
931.936	0.0163538
932.014	0.0163994
932.092	0.0165446
932.170	0.0165167
932.248	0.0165308
932.326	0.0164701
932.405	0.0164952
932.483	0.0165527
932.561	0.0166833
932.639	0.0167401
932.717	0.0166814
932.795	0.0166020
932.873	0.0166387
932.951	0.0167562
933.030	0.0166589
933.108	0.0167292
933.186	0.0166789
933.264	0.0166953
933.342	0.0166759
933.420	0.0167454
933.498	0.0168074
933.576	0.0167473
933.655	0.0166878
933.733	0.0166647
933.811	0.0166541
933.889	0.0165247
933.967	0.0166989
934.045	0.0165518
934.123	0.0164359
934.201	0.0164796
934.280	0.0165459
934.358	0.0164547
934.436	0.0163971
934.514	0.0163563
934.592	0.0163297
934.670	0.0163632
934.748	0.0163642
934.826	0.0163338
934.905	0.0164070
934.983	0.0163747
935.061	0.0164713
935.139	0.0165112
935.217	0.0165292
935.295	0.0166187
935.373	0.0165703
935.451	0.0164960
935.530	0.0165893
935.608	0.0165010
935.686	0.0165820
935.764	0.0164986
935.842	0.0165282
935.920	0.0165020
935.998	0.0163747
936.076	0.0162589
936.155	0.0163714
936.233	0.0163556
936.311	0.0162259
936.389	0.0162278
936.467	0.0162321
936.545	0.0161554
936.623	0.0161398
936.701	0.0161259
936.780	0.0161578
936.858	0.0159676
936.936	0.0162202
937.014	0.0163557
937.092	0.0161816
937.170	0.0162362
937.248	0.0163871
937.326	0.0165456
937.405	0.0165515
937.483	0.0166045
937.561	0.0165414
937.639	0.0165881
937.717	0.0166734
937.795	0.0167815
937.873	0.0166378
937.951	0.0167841
938.030	0.0166867
938.108	0.0168300
938.186	0.0169120
938.264	0.0168061
938.342	0.0168642
938.420	0.0169091
938.498	0.0169499
938.576	0.0169104
938.655	0.0167730
938.733	0.0169165
938.811	0.0168925
938.889	0.0168719
938.967	0.0168495
939.045	0.0168106
939.123	0.0167957
939.201	0.0166315
939.280	0.0166972
939.358	0.0166016
939.436	0.0166600
939.514	0.0166301
939.592	0.0166288
939.670	0.0164149
939.748	0.0164272
939.826	0.0164768
939.905	0.0165431
939.983	0.0165766
940.061	0.0164371
940.139	0.0163871
940.217	0.0163976
940.295	0.0164150
940.373	0.0164113
940.451	0.0165126
940.530	0.0163737
940.608	0.0163857
940.686	0.0163605
940.764	0.0163314
940.842	0.0164184
940.920	0.0164735
940.998	0.0163737
941.076	0.0162803
941.155	0.0164117
941.233	0.0165027
941.311	0.0164604
941.389	0.0164383
941.467	0.0164904
941.545	0.0164848
941.623	0.0164252
941.701	0.0163915
941.780	0.0165453
941.858	0.0166013
941.936	0.0166097
942.014	0.0166638
942.092	0.0164871
942.170	0.0166168
942.248	0.0165392
942.326	0.0165391
942.405	0.0165488
942.483	0.0165841
942.561	0.0164629
942.639	0.0167723
942.717	0.0167374
942.795	0.0167458
942.873	0.0167902
942.951	0.0166953
943.030	0.0167300
943.108	0.0167874
943.186	0.0167184
943.264	0.0166335
943.342	0.0165730
943.420	0.0166023
943.498	0.0166421
943.576	0.0165526
943.655	0.0165448
943.733	0.0165172
943.811	0.0163859
943.889	0.0164052
943.967	0.0164349
944.045	0.0166621
944.123	0.0166318
944.201	0.0165536
944.280	0.0166357
944.358	0.0165257
944.436	0.0165420
944.514	0.0166122
944.592	0.0165672
944.670	0.0166949
944.748	0.0165668
944.826	0.0166747
944.905	0.0165144
944.983	0.0166077
945.061	0.0166175
945.139	0.0165691
945.217	0.0166492
945.295	0.0166486
945.373	0.0166013
945.451	0.0164961
945.530	0.0165727
945.608	0.0165318
945.686	0.0165226
945.764	0.0164780
945.842	0.0165620
945.920	0.0164426
945.998	0.0164161
946.076	0.0164845
946.155	0.0163195
946.233	0.0164590
946.311	0.0164250
946.389	0.0164555
946.467	0.0164588
946.545	0.0164270
946.623	0.0164097
946.701	0.0165153
946.780	0.0163821
946.858	0.0163556
946.936	0.0165307
947.014	0.0163898
947.092	0.0163992
947.170	0.0163496
947.248	0.0164366
947.326	0.0163747
947.405	0.0161877
947.483	0.0162096
947.561	0.0162730
947.639	0.0163171
947.717	0.0162552
947.795	0.0161959
947.873	0.0162144
947.951	0.0161504
948.030	0.0163486
948.108	0.0163105
948.186	0.0162593
948.264	0.0162539
948.342	0.0164469
948.420	0.0164002
948.498	0.0164005
948.576	0.0164281
948.655	0.0164466
948.733	0.0165015
948.811	0.0166442
948.889	0.0166324
948.967	0.0166297
949.045	0.0166827
949.123	0.0168066
949.201	0.0168544
949.280	0.0167648
949.358	0.0169776
949.436	0.0169247
949.514	0.0170490
949.592	0.0168649
949.670	0.0169146
949.748	0.0169405
949.826	0.0169023
949.905	0.0167657
949.983	0.0166800
950.061	0.0168497
950.139	0.0167448
950.217	0.0167349
950.295	0.0167306
950.373	0.0166468
950.451	0.0166439
950.530	0.0165891
950.608	0.0164487
950.686	0.0165537
950.764	0.0164266
950.842	0.0162846
950.920	0.0163399
950.998	0.0164339
951.076	0.0164433
951.155	0.0163602
951.233	0.0164545
951.311	0.0163739
951.389	0.0163683
951.467	0.0163419
951.545	0.0164584
951.623	0.0163354
951.701	0.0163616
951.780	0.0164503
951.858	0.0165128
951.936	0.0165184
952.014	0.0164658
952.092	0.0165759
952.170	0.0164557
952.248	0.0164130
952.326	0.0164134
952.405	0.0164432
952.483	0.0164582
952.561	0.0162853
952.639	0.0164373
952.717	0.0163248
952.795	0.0161485
952.873	0.0161996
952.951	0.0162424
953.030	0.0162897
953.108	0.0162914
953.186	0.0163529
953.264	0.0163010
953.342	0.0161878
953.420	0.0162878
953.498	0.0164310
953.576	0.0164348
953.655	0.0165074
953.733	0.0164909
953.811	0.0164580
953.889	0.0166369
953.967	0.0166645
954.045	0.0167764
954.123	0.0167659
954.201	0.0166974
954.280	0.0168422
954.358	0.0167574
954.436	0.0167519
954.514	0.0169379
954.592	0.0169188
954.670	0.0167717
954.748	0.0166535
954.826	0.0167299
954.905	0.0168775
954.983	0.0166504
955.061	0.0167056
955.139	0.0167230
955.217	0.0165644
955.295	0.0166035
955.373	0.0166134
955.451	0.0165939
955.530	0.0166266
955.608	0.0164813
955.686	0.0163456
955.764	0.0164082
955.842	0.0164340
955.920	0.0163448
955.998	0.0163786
956.076	0.0163162
956.155	0.0164001
956.233	0.0162866
956.311	0.0164744
956.389	0.0163219
956.467	0.0163562
956.545	0.0163593
956.623	0.0165321
956.701	0.0164825
956.780	0.0165655
956.858	0.0164217
956.936	0.0165509
957.014	0.0165277
957.092	0.0165054
957.170	0.0164646
957.248	0.0165202
957.326	0.0167500
957.405	0.0167264
957.483	0.0165816
957.561	0.0164743
957.639	0.0166103
957.717	0.0163920
957.795	0.0164943
957.873	0.0165728
957.951	0.0164521
958.030	0.0164329
958.108	0.0164406
958.186	0.0163940
958.264	0.0163488
958.342	0.0164777
958.420	0.0164433
958.498	0.0163414
958.576	0.0163916
958.655	0.0164459
958.733	0.0164222
958.811	0.0165742
958.889	0.0164838
958.967	0.0164513
959.045	0.0165668
959.123	0.0164983
959.201	0.0165911
959.280	0.0166936
959.358	0.0166812
959.436	0.0165832
959.514	0.0168004
959.592	0.0168640
959.670	0.0166801
959.748	0.0169521
959.826	0.0168795
959.905	0.0167928
