05/17/2022	16:45:33	Ver.	4.1	UNKNOWN
Optical Delay	639.982744	Delta X		0.078125	Sweeps	1	Scan Rate	0/0
Coordinates	Axis 1	NaN	Axis 2	NaN	Axis 3	NaN	Axis 4	NaN	Axis 5	NaN	Axis 6	0.000000
TX Power	0.000000	RX Power	0.000000

639.983	0.0153754
640.061	0.0153817
640.139	0.0154686
640.217	0.0154195
640.295	0.0154902
640.373	0.0152689
640.451	0.0153077
640.530	0.0153797
640.608	0.0153466
640.686	0.0153869
640.764	0.0154920
640.842	0.0154679
640.920	0.0155376
640.998	0.0154304
641.076	0.0153620
641.155	0.0153863
641.233	0.0153079
641.311	0.0154341
641.389	0.0153554
641.467	0.0153756
641.545	0.0153754
641.623	0.0154108
641.701	0.0154470
641.780	0.0154688
641.858	0.0153147
641.936	0.0153925
642.014	0.0154334
642.092	0.0155515
642.170	0.0154033
642.248	0.0152790
642.326	0.0153899
642.405	0.0155438
642.483	0.0154672
642.561	0.0153101
642.639	0.0155331
642.717	0.0155944
642.795	0.0154144
642.873	0.0155142
642.951	0.0154263
643.030	0.0154325
643.108	0.0153987
643.186	0.0153416
643.264	0.0152966
643.342	0.0153162
643.420	0.0155238
643.498	0.0153881
643.576	0.0153088
643.655	0.0153127
643.733	0.0153246
643.811	0.0154632
643.889	0.0154149
643.967	0.0152901
644.045	0.0154288
644.123	0.0153992
644.201	0.0152715
644.280	0.0155231
644.358	0.0154966
644.436	0.0153853
644.514	0.0154447
644.592	0.0153157
644.670	0.0154060
644.748	0.0152938
644.826	0.0154626
644.905	0.0153957
644.983	0.0154215
645.061	0.0153970
645.139	0.0155017
645.217	0.0153476
645.295	0.0154137
645.373	0.0155465
645.451	0.0154310
645.530	0.0155180
645.608	0.0153693
645.686	0.0155132
645.764	0.0154773
645.842	0.0155122
645.920	0.0154412
645.998	0.0155756
646.076	0.0155008
646.155	0.0154332
646.233	0.0154780
646.311	0.0153915
646.389	0.0154161
646.467	0.0152470
646.545	0.0153098
646.623	0.0154596
646.701	0.0153726
646.780	0.0155724
646.858	0.0153490
646.936	0.0154439
647.014	0.0153997
647.092	0.0153503
647.170	0.0155341
647.248	0.0154637
647.326	0.0154711
647.405	0.0154659
647.483	0.0154809
647.561	0.0155322
647.639	0.0154050
647.717	0.0154584
647.795	0.0154629
647.873	0.0153168
647.951	0.0154700
648.030	0.0155265
648.108	0.0154476
648.186	0.0153799
648.264	0.0155935
648.342	0.0156378
648.420	0.0154123
648.498	0.0154972
648.576	0.0153762
648.655	0.0154731
648.733	0.0154525
648.811	0.0154714
648.889	0.0154653
648.967	0.0153803
649.045	0.0153093
649.123	0.0155278
649.201	0.0153930
649.280	0.0154419
649.358	0.0155161
649.436	0.0155317
649.514	0.0153807
649.592	0.0154282
649.670	0.0154106
649.748	0.0155151
649.826	0.0155287
649.905	0.0154472
649.983	0.0154404
650.061	0.0155506
650.139	0.0154538
650.217	0.0153440
650.295	0.0154968
650.373	0.0154534
650.451	0.0154608
650.530	0.0154611
650.608	0.0154844
650.686	0.0153930
650.764	0.0153432
650.842	0.0154250
650.920	0.0155401
650.998	0.0156210
651.076	0.0155984
651.155	0.0155328
651.233	0.0153330
651.311	0.0154539
651.389	0.0156438
651.467	0.0155686
651.545	0.0154288
651.623	0.0155397
651.701	0.0154143
651.780	0.0154585
651.858	0.0153081
651.936	0.0153487
652.014	0.0155131
652.092	0.0154646
652.170	0.0155144
652.248	0.0154595
652.326	0.0154601
652.405	0.0154495
652.483	0.0155146
652.561	0.0154649
652.639	0.0153256
652.717	0.0153504
652.795	0.0154311
652.873	0.0153508
652.951	0.0153419
653.030	0.0154927
653.108	0.0154288
653.186	0.0153011
653.264	0.0155385
653.342	0.0155717
653.420	0.0155177
653.498	0.0154095
653.576	0.0154711
653.655	0.0154660
653.733	0.0152373
653.811	0.0154604
653.889	0.0155119
653.967	0.0153874
654.045	0.0154852
654.123	0.0155119
654.201	0.0154883
654.280	0.0155904
654.358	0.0154128
654.436	0.0153492
654.514	0.0154391
654.592	0.0153867
654.670	0.0154644
654.748	0.0153672
654.826	0.0154520
654.905	0.0153388
654.983	0.0153657
655.061	0.0153374
655.139	0.0154263
655.217	0.0153587
655.295	0.0154222
655.373	0.0154307
655.451	0.0154205
655.530	0.0154978
655.608	0.0154577
655.686	0.0154364
655.764	0.0155083
655.842	0.0154240
655.920	0.0154659
655.998	0.0154601
656.076	0.0153862
656.155	0.0155703
656.233	0.0154321
656.311	0.0152996
656.389	0.0153679
656.467	0.0155453
656.545	0.0156757
656.623	0.0153690
656.701	0.0153487
656.780	0.0154530
656.858	0.0154140
656.936	0.0153925
657.014	0.0153539
657.092	0.0153411
657.170	0.0154175
657.248	0.0154284
657.326	0.0153195
657.405	0.0154208
657.483	0.0154966
657.561	0.0153653
657.639	0.0155030
657.717	0.0154476
657.795	0.0153185
657.873	0.0153358
657.951	0.0154615
658.030	0.0154601
658.108	0.0154221
658.186	0.0153334
658.264	0.0154090
658.342	0.0155361
658.420	0.0154270
658.498	0.0153416
658.576	0.0153504
658.655	0.0155270
658.733	0.0154292
658.811	0.0153876
658.889	0.0153759
658.967	0.0153645
659.045	0.0153815
659.123	0.0154378
659.201	0.0154732
659.280	0.0154153
659.358	0.0153535
659.436	0.0154142
659.514	0.0153944
659.592	0.0154059
659.670	0.0155047
659.748	0.0153672
659.826	0.0153777
659.905	0.0154670
659.983	0.0152532
660.061	0.0154623
660.139	0.0152679
660.217	0.0153712
660.295	0.0153951
660.373	0.0154737
660.451	0.0153055
660.530	0.0154379
660.608	0.0154127
660.686	0.0152645
660.764	0.0152341
660.842	0.0153916
660.920	0.0153766
660.998	0.0155500
661.076	0.0153975
661.155	0.0153754
661.233	0.0153574
661.311	0.0153896
661.389	0.0154263
661.467	0.0152794
661.545	0.0153783
661.623	0.0155414
661.701	0.0153764
661.780	0.0153954
661.858	0.0155455
661.936	0.0153980
662.014	0.0155019
662.092	0.0155938
662.170	0.0154697
662.248	0.0153139
662.326	0.0153976
662.405	0.0153725
662.483	0.0155058
662.561	0.0153809
662.639	0.0153329
662.717	0.0153324
662.795	0.0154604
662.873	0.0153474
662.951	0.0153944
663.030	0.0154509
663.108	0.0155441
663.186	0.0154959
663.264	0.0154440
663.342	0.0154703
663.420	0.0153789
663.498	0.0154452
663.576	0.0154226
663.655	0.0153492
663.733	0.0153898
663.811	0.0154477
663.889	0.0154788
663.967	0.0154431
664.045	0.0156172
664.123	0.0154805
664.201	0.0154554
664.280	0.0153937
664.358	0.0155747
664.436	0.0153568
664.514	0.0155067
664.592	0.0154968
664.670	0.0153378
664.748	0.0154752
664.826	0.0153846
664.905	0.0154660
664.983	0.0154332
665.061	0.0153429
665.139	0.0153983
665.217	0.0153608
665.295	0.0152984
665.373	0.0154284
665.451	0.0154984
665.530	0.0153388
665.608	0.0153592
665.686	0.0153309
665.764	0.0152779
665.842	0.0155027
665.920	0.0155044
665.998	0.0154194
666.076	0.0154884
666.155	0.0153309
666.233	0.0155042
666.311	0.0154330
666.389	0.0153505
666.467	0.0153343
666.545	0.0152979
666.623	0.0154519
666.701	0.0154045
666.780	0.0154556
666.858	0.0154327
666.936	0.0152568
667.014	0.0152976
667.092	0.0153474
667.170	0.0154806
667.248	0.0152082
667.326	0.0154192
667.405	0.0154977
667.483	0.0154011
667.561	0.0153329
667.639	0.0153159
667.717	0.0154549
667.795	0.0153727
667.873	0.0153397
667.951	0.0154011
668.030	0.0154472
668.108	0.0154362
668.186	0.0153819
668.264	0.0152528
668.342	0.0153114
668.420	0.0155184
668.498	0.0154284
668.576	0.0153465
668.655	0.0154505
668.733	0.0154990
668.811	0.0154509
668.889	0.0154285
668.967	0.0153210
669.045	0.0154253
669.123	0.0153755
669.201	0.0154713
669.280	0.0155599
669.358	0.0153852
669.436	0.0153616
669.514	0.0154320
669.592	0.0153053
669.670	0.0153482
669.748	0.0154054
669.826	0.0153356
669.905	0.0154979
669.983	0.0154021
670.061	0.0153352
670.139	0.0154207
670.217	0.0153838
670.295	0.0153349
670.373	0.0154446
670.451	0.0154082
670.530	0.0153818
670.608	0.0154566
670.686	0.0152380
670.764	0.0153919
670.842	0.0153800
670.920	0.0154710
670.998	0.0154111
671.076	0.0154414
671.155	0.0154212
671.233	0.0153133
671.311	0.0153901
671.389	0.0153810
671.467	0.0153001
671.545	0.0153713
671.623	0.0154799
671.701	0.0154239
671.780	0.0153493
671.858	0.0154416
671.936	0.0153194
672.014	0.0153147
672.092	0.0152565
672.170	0.0153363
672.248	0.0154450
672.326	0.0155296
672.405	0.0154723
672.483	0.0154076
672.561	0.0153668
672.639	0.0154122
672.717	0.0154227
672.795	0.0152943
672.873	0.0151468
672.951	0.0152612
673.030	0.0153459
673.108	0.0153893
673.186	0.0152471
673.264	0.0152621
673.342	0.0152676
673.420	0.0154060
673.498	0.0153584
673.576	0.0153841
673.655	0.0153420
673.733	0.0154119
673.811	0.0153666
673.889	0.0154402
673.967	0.0154613
674.045	0.0152972
674.123	0.0153744
674.201	0.0154635
674.280	0.0154693
674.358	0.0155228
674.436	0.0154807
674.514	0.0156540
674.592	0.0155791
674.670	0.0155482
674.748	0.0155817
674.826	0.0154617
674.905	0.0154342
674.983	0.0154184
675.061	0.0154340
675.139	0.0153201
675.217	0.0153397
675.295	0.0153130
675.373	0.0151435
675.451	0.0150451
675.530	0.0152477
675.608	0.0152103
675.686	0.0153195
675.764	0.0154092
675.842	0.0152516
675.920	0.0154260
675.998	0.0154323
676.076	0.0152585
676.155	0.0152882
676.233	0.0153556
676.311	0.0155259
676.389	0.0156348
676.467	0.0154941
676.545	0.0156147
676.623	0.0155277
676.701	0.0157445
676.780	0.0157925
676.858	0.0156408
676.936	0.0155648
677.014	0.0155607
677.092	0.0156214
677.170	0.0155797
677.248	0.0154534
677.326	0.0154523
677.405	0.0152756
677.483	0.0154339
677.561	0.0151888
677.639	0.0151507
677.717	0.0150508
677.795	0.0151349
677.873	0.0150661
677.951	0.0149651
678.030	0.0149913
678.108	0.0151590
678.186	0.0151371
678.264	0.0151225
678.342	0.0152493
678.420	0.0152032
678.498	0.0153589
678.576	0.0154663
678.655	0.0155003
678.733	0.0157394
678.811	0.0157516
678.889	0.0158916
678.967	0.0159620
679.045	0.0160022
679.123	0.0158994
679.201	0.0158998
679.280	0.0159518
679.358	0.0158550
679.436	0.0159557
679.514	0.0157430
679.592	0.0155411
679.670	0.0153519
679.748	0.0150957
679.826	0.0150994
679.905	0.0150533
679.983	0.0148813
680.061	0.0147945
680.139	0.0147937
680.217	0.0146402
680.295	0.0147221
680.373	0.0148021
680.451	0.0149512
680.530	0.0150343
680.608	0.0150623
680.686	0.0152296
680.764	0.0153233
680.842	0.0155341
680.920	0.0157236
680.998	0.0158257
681.076	0.0159066
681.155	0.0160216
681.233	0.0161311
681.311	0.0162453
681.389	0.0160991
681.467	0.0161781
681.545	0.0161839
681.623	0.0160418
681.701	0.0159643
681.780	0.0158023
681.858	0.0158666
681.936	0.0156877
682.014	0.0154973
682.092	0.0152856
682.170	0.0152930
682.248	0.0153110
682.326	0.0152316
682.405	0.0151158
682.483	0.0150132
682.561	0.0149762
682.639	0.0149986
682.717	0.0148999
682.795	0.0149148
682.873	0.0148981
682.951	0.0149367
683.030	0.0150423
683.108	0.0151066
683.186	0.0153780
683.264	0.0154079
683.342	0.0154519
683.420	0.0156516
683.498	0.0157166
683.576	0.0158054
683.655	0.0157042
683.733	0.0157524
683.811	0.0157852
683.889	0.0158150
683.967	0.0158221
684.045	0.0156720
684.123	0.0155852
684.201	0.0155546
684.280	0.0157462
684.358	0.0156614
684.436	0.0155469
684.514	0.0154810
684.592	0.0155727
684.670	0.0156938
684.748	0.0157967
684.826	0.0157494
684.905	0.0159949
684.983	0.0159176
685.061	0.0157988
685.139	0.0159024
685.217	0.0159007
685.295	0.0158296
685.373	0.0157143
685.451	0.0157146
685.530	0.0155900
685.608	0.0154755
685.686	0.0154611
685.764	0.0153991
685.842	0.0154727
685.920	0.0155844
685.998	0.0154965
686.076	0.0155872
686.155	0.0155009
686.233	0.0155743
686.311	0.0155935
686.389	0.0154555
686.467	0.0152380
686.545	0.0152674
686.623	0.0151112
686.701	0.0149818
686.780	0.0149958
686.858	0.0149181
686.936	0.0148676
687.014	0.0147615
687.092	0.0148019
687.170	0.0147690
687.248	0.0148602
687.326	0.0148370
687.405	0.0147940
687.483	0.0148039
687.561	0.0147062
687.639	0.0146420
687.717	0.0146688
687.795	0.0147585
687.873	0.0150563
687.951	0.0151762
688.030	0.0152502
688.108	0.0155289
688.186	0.0158459
688.264	0.0159976
688.342	0.0161969
688.420	0.0163945
688.498	0.0163882
688.576	0.0163483
688.655	0.0164981
688.733	0.0165775
688.811	0.0165259
688.889	0.0163634
688.967	0.0163570
689.045	0.0161655
689.123	0.0160419
689.201	0.0160252
689.280	0.0159454
689.358	0.0156461
689.436	0.0158092
689.514	0.0156444
689.592	0.0157112
689.670	0.0157289
689.748	0.0156242
689.826	0.0155344
689.905	0.0154648
689.983	0.0156316
690.061	0.0156191
690.139	0.0156399
690.217	0.0156474
690.295	0.0157010
690.373	0.0156165
690.451	0.0155381
690.530	0.0155338
690.608	0.0154059
690.686	0.0152543
690.764	0.0150605
690.842	0.0148775
690.920	0.0148376
690.998	0.0146549
691.076	0.0145602
691.155	0.0143272
691.233	0.0141148
691.311	0.0139498
691.389	0.0137721
691.467	0.0136562
691.545	0.0135708
691.623	0.0135096
691.701	0.0133195
691.780	0.0131934
691.858	0.0132040
691.936	0.0131504
692.014	0.0131721
692.092	0.0134361
692.170	0.0134740
692.248	0.0137007
692.326	0.0140107
692.405	0.0143682
692.483	0.0147536
692.561	0.0153231
692.639	0.0157420
692.717	0.0163211
692.795	0.0172407
692.873	0.0177650
692.951	0.0184129
693.030	0.0189735
693.108	0.0193511
693.186	0.0199331
693.264	0.0202409
693.342	0.0203469
693.420	0.0204397
693.498	0.0206068
693.576	0.0204459
693.655	0.0201459
693.733	0.0195923
693.811	0.0190818
693.889	0.0186603
693.967	0.0177897
694.045	0.0171874
694.123	0.0163783
694.201	0.0156853
694.280	0.0149547
694.358	0.0141202
694.436	0.0135288
694.514	0.0128923
694.592	0.0122954
694.670	0.0118264
694.748	0.0116519
694.826	0.0116042
694.905	0.0113661
694.983	0.0113034
695.061	0.0116447
695.139	0.0117754
695.217	0.0120309
695.295	0.0125281
695.373	0.0127514
695.451	0.0133147
695.530	0.0136211
695.608	0.0138444
695.686	0.0141315
695.764	0.0144125
695.842	0.0147141
695.920	0.0150040
695.998	0.0150937
696.076	0.0152412
696.155	0.0153729
696.233	0.0152729
696.311	0.0152611
696.389	0.0152927
696.467	0.0150201
696.545	0.0147010
696.623	0.0145885
696.701	0.0145171
696.780	0.0142893
696.858	0.0141052
696.936	0.0138709
697.014	0.0138387
697.092	0.0137491
697.170	0.0138037
697.248	0.0140015
697.326	0.0142446
697.405	0.0145679
697.483	0.0148457
697.561	0.0154465
697.639	0.0159211
697.717	0.0165353
697.795	0.0168977
697.873	0.0173727
697.951	0.0179631
698.030	0.0185390
698.108	0.0191516
698.186	0.0196806
698.264	0.0199579
698.342	0.0201709
698.420	0.0203761
698.498	0.0203716
698.576	0.0205163
698.655	0.0204124
698.733	0.0202230
698.811	0.0196145
698.889	0.0193737
698.967	0.0187354
699.045	0.0179412
699.123	0.0172460
699.201	0.0167049
699.280	0.0158607
699.358	0.0151565
699.436	0.0144743
699.514	0.0138441
699.592	0.0132118
699.670	0.0127385
699.748	0.0124202
699.826	0.0120517
699.905	0.0117747
699.983	0.0114577
700.061	0.0113642
700.139	0.0112849
700.217	0.0112777
700.295	0.0114308
700.373	0.0116821
700.451	0.0116692
700.530	0.0119312
700.608	0.0121641
700.686	0.0125156
700.764	0.0125521
700.842	0.0128082
700.920	0.0131400
700.998	0.0134576
701.076	0.0138440
701.155	0.0140730
701.233	0.0144553
701.311	0.0146259
701.389	0.0148294
701.467	0.0151333
701.545	0.0152792
701.623	0.0153569
701.701	0.0154597
701.780	0.0154631
701.858	0.0153638
701.936	0.0151958
702.014	0.0151232
702.092	0.0151105
702.170	0.0150167
702.248	0.0149902
702.326	0.0150440
702.405	0.0151283
702.483	0.0152610
702.561	0.0153956
702.639	0.0156572
702.717	0.0161591
702.795	0.0166597
702.873	0.0172421
702.951	0.0178098
703.030	0.0183878
703.108	0.0190459
703.186	0.0198514
703.264	0.0203642
703.342	0.0211118
703.420	0.0215054
703.498	0.0219413
703.576	0.0223254
703.655	0.0225551
703.733	0.0225780
703.811	0.0222131
703.889	0.0218530
703.967	0.0214634
704.045	0.0206202
704.123	0.0197350
704.201	0.0186644
704.280	0.0177166
704.358	0.0165373
704.436	0.0154007
704.514	0.0141560
704.592	0.0131585
704.670	0.0121275
704.748	0.0113277
704.826	0.0106188
704.905	0.0100554
704.983	0.00954895
705.061	0.00914009
705.139	0.00900406
705.217	0.00881798
705.295	0.00881943
705.373	0.00890488
705.451	0.00921013
705.530	0.00949402
705.608	0.00992706
705.686	0.0105735
705.764	0.0110871
705.842	0.0115709
705.920	0.0121822
705.998	0.0128129
706.076	0.0132800
706.155	0.0139349
706.233	0.0143378
706.311	0.0147115
706.389	0.0152275
706.467	0.0154640
706.545	0.0155550
706.623	0.0159908
706.701	0.0162354
706.780	0.0162662
706.858	0.0162824
706.936	0.0163230
707.014	0.0164278
707.092	0.0163489
707.170	0.0162482
707.248	0.0165237
707.326	0.0165421
707.405	0.0164030
707.483	0.0164362
707.561	0.0166682
707.639	0.0166627
707.717	0.0164880
707.795	0.0166684
707.873	0.0168536
707.951	0.0168653
708.030	0.0170815
708.108	0.0171740
708.186	0.0174459
708.264	0.0175624
708.342	0.0178563
708.420	0.0181053
708.498	0.0182420
708.576	0.0185859
708.655	0.0188046
708.733	0.0193616
708.811	0.0195158
708.889	0.0197583
708.967	0.0202968
709.045	0.0204575
709.123	0.0206450
709.201	0.0208640
709.280	0.0206364
709.358	0.0205261
709.436	0.0203975
709.514	0.0198991
709.592	0.0192657
709.670	0.0187365
709.748	0.0178976
709.826	0.0170274
709.905	0.0159997
709.983	0.0150935
710.061	0.0141888
710.139	0.0132909
710.217	0.0123193
710.295	0.0115505
710.373	0.0109258
710.451	0.0103158
710.530	0.00984703
710.608	0.00950958
710.686	0.00916061
710.764	0.00900131
710.842	0.00904831
710.920	0.00909508
710.998	0.00919746
711.076	0.00940727
711.155	0.00992020
711.233	0.0103996
711.311	0.0110027
711.389	0.0114542
711.467	0.0119708
711.545	0.0124541
711.623	0.0129945
711.701	0.0133886
711.780	0.0139631
711.858	0.0145779
711.936	0.0150188
712.014	0.0153176
712.092	0.0156644
712.170	0.0160663
712.248	0.0162485
712.326	0.0166363
712.405	0.0167757
712.483	0.0170798
712.561	0.0172557
712.639	0.0173963
712.717	0.0174786
712.795	0.0176257
712.873	0.0175370
712.951	0.0174467
713.030	0.0173673
713.108	0.0171140
713.186	0.0170203
713.264	0.0167773
713.342	0.0167248
713.420	0.0166359
713.498	0.0163240
713.576	0.0164783
713.655	0.0163614
713.733	0.0163284
713.811	0.0165814
713.889	0.0167852
713.967	0.0169477
714.045	0.0171584
714.123	0.0174792
714.201	0.0177565
714.280	0.0179783
714.358	0.0183365
714.436	0.0185504
714.514	0.0188404
714.592	0.0187811
714.670	0.0189931
714.748	0.0191292
714.826	0.0190871
714.905	0.0188988
714.983	0.0187288
715.061	0.0184693
715.139	0.0182553
715.217	0.0176574
715.295	0.0171998
715.373	0.0167352
715.451	0.0159740
715.530	0.0154179
715.608	0.0146997
715.686	0.0141308
715.764	0.0134044
715.842	0.0128175
715.920	0.0121191
715.998	0.0115530
716.076	0.0113367
716.155	0.0110988
716.233	0.0106948
716.311	0.0103578
716.389	0.0103703
716.467	0.0103715
716.545	0.0104844
716.623	0.0107110
716.701	0.0111829
716.780	0.0113995
716.858	0.0117187
716.936	0.0121404
717.014	0.0128260
717.092	0.0133684
717.170	0.0138807
717.248	0.0144955
717.326	0.0149282
717.405	0.0153750
717.483	0.0156441
717.561	0.0160877
717.639	0.0161353
717.717	0.0164533
717.795	0.0165246
717.873	0.0167120
717.951	0.0165910
718.030	0.0166762
718.108	0.0166078
718.186	0.0163004
718.264	0.0163829
718.342	0.0162407
718.420	0.0162027
718.498	0.0160970
718.576	0.0162216
718.655	0.0162379
718.733	0.0161409
718.811	0.0162524
718.889	0.0164208
718.967	0.0166841
719.045	0.0166406
719.123	0.0167679
719.201	0.0167388
719.280	0.0170039
719.358	0.0169551
719.436	0.0169855
719.514	0.0170465
719.592	0.0173211
719.670	0.0173200
719.748	0.0173701
719.826	0.0173618
719.905	0.0172646
719.983	0.0173492
720.061	0.0173293
720.139	0.0173772
720.217	0.0172878
720.295	0.0169787
720.373	0.0170074
720.451	0.0168396
720.530	0.0166618
720.608	0.0163792
720.686	0.0161037
720.764	0.0159193
720.842	0.0158912
720.920	0.0154121
720.998	0.0152360
721.076	0.0148455
721.155	0.0145496
721.233	0.0144515
721.311	0.0140065
721.389	0.0138621
721.467	0.0134682
721.545	0.0131816
721.623	0.0130151
721.701	0.0128036
721.780	0.0125597
721.858	0.0124010
721.936	0.0125852
722.014	0.0125451
722.092	0.0126644
722.170	0.0128162
722.248	0.0129424
722.326	0.0131035
722.405	0.0134138
722.483	0.0138160
722.561	0.0141045
722.639	0.0144650
722.717	0.0148503
722.795	0.0150752
722.873	0.0155245
722.951	0.0156564
723.030	0.0161194
723.108	0.0162276
723.186	0.0163043
723.264	0.0165495
723.342	0.0166134
723.420	0.0166792
723.498	0.0165842
723.576	0.0166433
723.655	0.0166414
723.733	0.0165695
723.811	0.0165341
723.889	0.0163782
723.967	0.0161926
724.045	0.0163515
724.123	0.0162740
724.201	0.0160876
724.280	0.0158382
724.358	0.0158167
724.436	0.0159106
724.514	0.0156960
724.592	0.0157888
724.670	0.0157640
724.748	0.0157131
724.826	0.0158157
724.905	0.0158226
724.983	0.0157684
725.061	0.0159371
725.139	0.0158395
725.217	0.0156786
725.295	0.0157776
725.373	0.0158023
725.451	0.0158138
725.530	0.0156441
725.608	0.0157269
725.686	0.0156938
725.764	0.0156541
725.842	0.0155581
725.920	0.0157029
725.998	0.0154800
726.076	0.0155309
726.155	0.0153918
726.233	0.0153008
726.311	0.0153022
726.389	0.0151478
726.467	0.0150296
726.545	0.0152012
726.623	0.0151992
726.701	0.0151634
726.780	0.0151880
726.858	0.0152858
726.936	0.0150727
727.014	0.0152672
727.092	0.0153838
727.170	0.0155151
727.248	0.0155616
727.326	0.0155540
727.405	0.0155473
727.483	0.0156573
727.561	0.0157925
727.639	0.0158024
727.717	0.0157835
727.795	0.0157787
727.873	0.0157291
727.951	0.0156818
728.030	0.0158546
728.108	0.0156999
728.186	0.0155584
728.264	0.0154815
728.342	0.0154668
728.420	0.0154357
728.498	0.0154228
728.576	0.0153668
728.655	0.0153194
728.733	0.0152472
728.811	0.0151970
728.889	0.0152637
728.967	0.0151910
729.045	0.0151390
729.123	0.0153085
729.201	0.0153136
729.280	0.0152335
729.358	0.0153498
729.436	0.0155160
729.514	0.0155358
729.592	0.0156617
729.670	0.0157273
729.748	0.0158447
729.826	0.0158466
729.905	0.0158216
729.983	0.0159464
730.061	0.0159123
730.139	0.0157809
730.217	0.0157874
730.295	0.0156319
730.373	0.0156162
730.451	0.0152670
730.530	0.0151256
730.608	0.0150333
730.686	0.0148464
730.764	0.0146765
730.842	0.0144318
730.920	0.0145225
730.998	0.0143499
731.076	0.0143181
731.155	0.0141349
731.233	0.0143388
731.311	0.0143962
731.389	0.0143478
731.467	0.0146708
731.545	0.0148275
731.623	0.0150073
731.701	0.0152141
731.780	0.0154983
731.858	0.0157853
731.936	0.0158476
732.014	0.0161060
732.092	0.0163535
732.170	0.0164572
732.248	0.0164214
732.326	0.0164716
732.405	0.0164483
732.483	0.0163574
732.561	0.0162975
732.639	0.0163668
732.717	0.0160960
732.795	0.0159595
732.873	0.0158439
732.951	0.0157513
733.030	0.0157152
733.108	0.0156709
733.186	0.0154948
733.264	0.0155752
733.342	0.0154770
733.420	0.0153386
733.498	0.0153551
733.576	0.0155331
733.655	0.0155334
733.733	0.0154079
733.811	0.0153647
733.889	0.0154211
733.967	0.0154463
734.045	0.0152497
734.123	0.0152222
734.201	0.0151928
734.280	0.0150446
734.358	0.0149840
734.436	0.0150640
734.514	0.0149075
734.592	0.0150691
734.670	0.0150311
734.748	0.0149679
734.826	0.0149491
734.905	0.0151878
734.983	0.0151412
735.061	0.0152898
735.139	0.0154996
735.217	0.0154868
735.295	0.0155090
735.373	0.0154509
735.451	0.0155086
735.530	0.0156749
735.608	0.0154559
735.686	0.0155921
735.764	0.0155544
735.842	0.0154192
735.920	0.0154767
735.998	0.0153081
736.076	0.0152041
736.155	0.0153339
736.233	0.0151252
736.311	0.0151138
736.389	0.0149432
736.467	0.0149494
736.545	0.0148344
736.623	0.0149139
736.701	0.0146857
736.780	0.0147858
736.858	0.0149637
736.936	0.0150796
737.014	0.0150845
737.092	0.0152045
737.170	0.0154746
737.248	0.0156451
737.326	0.0156422
737.405	0.0159283
737.483	0.0161034
737.561	0.0160790
737.639	0.0162705
737.717	0.0165169
737.795	0.0166051
737.873	0.0163448
737.951	0.0165022
738.030	0.0165322
738.108	0.0163262
738.186	0.0161572
738.264	0.0162043
738.342	0.0159686
738.420	0.0157260
738.498	0.0155525
738.576	0.0156019
738.655	0.0155328
738.733	0.0152711
738.811	0.0151063
738.889	0.0149786
738.967	0.0150150
739.045	0.0149482
739.123	0.0149371
739.201	0.0147916
739.280	0.0147688
739.358	0.0147417
739.436	0.0149184
739.514	0.0148676
739.592	0.0148854
739.670	0.0149346
739.748	0.0149521
739.826	0.0148450
739.905	0.0151054
739.983	0.0152055
740.061	0.0152029
740.139	0.0151924
740.217	0.0154579
740.295	0.0154252
740.373	0.0153465
740.451	0.0153633
740.530	0.0155499
740.608	0.0153715
740.686	0.0154483
740.764	0.0156064
740.842	0.0154085
740.920	0.0153464
740.998	0.0154957
741.076	0.0154737
741.155	0.0154462
741.233	0.0154785
741.311	0.0152894
741.389	0.0153125
741.467	0.0152462
741.545	0.0152106
741.623	0.0152493
741.701	0.0151310
741.780	0.0150799
741.858	0.0149518
741.936	0.0150279
742.014	0.0150188
742.092	0.0148038
742.170	0.0149865
742.248	0.0150629
742.326	0.0150333
742.405	0.0150784
742.483	0.0151231
742.561	0.0153942
742.639	0.0154727
742.717	0.0156839
742.795	0.0158181
742.873	0.0159133
742.951	0.0158824
743.030	0.0162064
743.108	0.0162378
743.186	0.0161742
743.264	0.0162804
743.342	0.0161628
743.420	0.0161256
743.498	0.0160158
743.576	0.0159317
743.655	0.0158180
743.733	0.0158028
743.811	0.0152528
743.889	0.0153000
743.967	0.0152164
744.045	0.0150626
744.123	0.0148417
744.201	0.0145921
744.280	0.0146407
744.358	0.0146258
744.436	0.0146318
744.514	0.0145776
744.592	0.0145408
744.670	0.0148511
744.748	0.0148916
744.826	0.0149326
744.905	0.0150057
744.983	0.0150520
745.061	0.0152367
745.139	0.0154840
745.217	0.0155209
745.295	0.0157976
745.373	0.0159587
745.451	0.0160970
745.530	0.0159393
745.608	0.0159316
745.686	0.0162061
745.764	0.0160647
745.842	0.0159838
745.920	0.0159454
745.998	0.0159988
746.076	0.0156500
746.155	0.0154431
746.233	0.0153796
746.311	0.0151832
746.389	0.0151508
746.467	0.0149258
746.545	0.0148361
746.623	0.0147863
746.701	0.0147449
746.780	0.0147073
746.858	0.0146822
746.936	0.0147595
747.014	0.0149548
747.092	0.0149870
747.170	0.0149499
747.248	0.0150775
747.326	0.0152086
747.405	0.0153555
747.483	0.0155540
747.561	0.0156077
747.639	0.0156845
747.717	0.0158164
747.795	0.0158993
747.873	0.0158369
747.951	0.0157204
748.030	0.0159262
748.108	0.0158180
748.186	0.0157238
748.264	0.0156305
748.342	0.0157523
748.420	0.0156912
748.498	0.0155917
748.576	0.0155310
748.655	0.0155121
748.733	0.0151979
748.811	0.0151868
748.889	0.0151830
748.967	0.0152287
749.045	0.0150611
749.123	0.0151246
749.201	0.0150390
749.280	0.0151160
749.358	0.0149350
749.436	0.0150363
749.514	0.0150013
749.592	0.0150052
749.670	0.0150136
749.748	0.0152703
749.826	0.0152620
749.905	0.0152904
749.983	0.0153076
750.061	0.0155073
750.139	0.0155072
750.217	0.0156847
750.295	0.0158498
750.373	0.0157877
750.451	0.0158564
750.530	0.0160645
750.608	0.0160008
750.686	0.0159447
750.764	0.0159909
750.842	0.0159367
750.920	0.0158942
750.998	0.0158893
751.076	0.0158994
751.155	0.0158945
751.233	0.0159612
751.311	0.0157806
751.389	0.0156134
751.467	0.0155630
751.545	0.0155358
751.623	0.0155788
751.701	0.0155190
751.780	0.0154341
751.858	0.0154075
751.936	0.0152381
752.014	0.0151588
752.092	0.0152212
752.170	0.0150155
752.248	0.0148726
752.326	0.0148502
752.405	0.0149125
752.483	0.0148772
752.561	0.0149136
752.639	0.0149390
752.717	0.0150034
752.795	0.0150305
752.873	0.0150361
752.951	0.0151523
753.030	0.0151595
753.108	0.0153767
753.186	0.0153156
753.264	0.0154491
753.342	0.0154399
753.420	0.0155537
753.498	0.0155551
753.576	0.0155891
753.655	0.0155750
753.733	0.0155460
753.811	0.0155091
753.889	0.0153992
753.967	0.0153272
754.045	0.0152900
754.123	0.0151846
754.201	0.0155048
754.280	0.0154707
754.358	0.0153409
754.436	0.0153153
754.514	0.0152644
754.592	0.0152494
754.670	0.0153268
754.748	0.0153918
754.826	0.0153330
754.905	0.0153474
754.983	0.0153300
755.061	0.0154807
755.139	0.0154120
755.217	0.0155101
755.295	0.0154865
755.373	0.0156206
755.451	0.0154372
755.530	0.0156284
755.608	0.0156467
755.686	0.0156428
755.764	0.0156178
755.842	0.0157432
755.920	0.0155406
755.998	0.0156522
756.076	0.0156564
756.155	0.0156084
756.233	0.0157322
756.311	0.0155783
756.389	0.0156388
756.467	0.0155643
756.545	0.0156493
756.623	0.0154951
756.701	0.0154521
756.780	0.0153425
756.858	0.0154055
756.936	0.0154637
757.014	0.0152950
757.092	0.0153098
757.170	0.0153165
757.248	0.0152167
757.326	0.0150090
757.405	0.0149710
757.483	0.0151223
757.561	0.0150925
757.639	0.0150690
757.717	0.0152193
757.795	0.0151753
757.873	0.0152450
757.951	0.0153208
758.030	0.0153027
758.108	0.0154464
758.186	0.0153082
758.264	0.0155015
758.342	0.0155355
758.420	0.0157722
758.498	0.0156628
758.576	0.0157706
758.655	0.0157923
758.733	0.0158292
758.811	0.0156496
758.889	0.0158741
758.967	0.0160228
759.045	0.0159734
759.123	0.0158010
759.201	0.0157465
759.280	0.0157485
759.358	0.0158064
759.436	0.0157040
759.514	0.0155277
759.592	0.0155672
759.670	0.0154652
759.748	0.0154636
759.826	0.0154139
759.905	0.0151000
759.983	0.0150542
760.061	0.0151336
760.139	0.0150837
760.217	0.0149407
760.295	0.0148850
760.373	0.0149229
760.451	0.0150143
760.530	0.0149743
760.608	0.0148438
760.686	0.0150261
760.764	0.0150175
760.842	0.0153055
760.920	0.0153534
760.998	0.0154144
761.076	0.0154094
761.155	0.0154981
761.233	0.0155465
761.311	0.0155171
761.389	0.0155618
761.467	0.0156872
761.545	0.0155813
761.623	0.0158119
761.701	0.0156338
761.780	0.0155992
761.858	0.0155493
761.936	0.0155228
762.014	0.0155304
762.092	0.0154598
762.170	0.0154124
762.248	0.0153983
762.326	0.0154049
762.405	0.0152798
762.483	0.0152166
762.561	0.0152557
762.639	0.0151162
762.717	0.0149817
762.795	0.0151248
762.873	0.0151796
762.951	0.0150316
763.030	0.0150797
763.108	0.0150160
763.186	0.0149267
763.264	0.0150891
763.342	0.0151048
763.420	0.0151119
763.498	0.0154501
763.576	0.0152928
763.655	0.0153350
763.733	0.0155241
763.811	0.0154816
763.889	0.0155171
763.967	0.0155079
764.045	0.0155652
764.123	0.0155038
764.201	0.0155465
764.280	0.0155967
764.358	0.0156271
764.436	0.0156081
764.514	0.0155222
764.592	0.0156825
764.670	0.0156350
764.748	0.0155834
764.826	0.0155696
764.905	0.0155009
764.983	0.0155191
765.061	0.0154767
765.139	0.0154639
765.217	0.0155035
765.295	0.0155334
765.373	0.0155000
765.451	0.0154160
765.530	0.0153815
765.608	0.0155361
765.686	0.0154041
765.764	0.0153440
765.842	0.0152901
765.920	0.0151463
765.998	0.0151455
766.076	0.0153612
766.155	0.0152747
766.233	0.0153342
766.311	0.0152463
766.389	0.0152090
766.467	0.0153273
766.545	0.0155287
766.623	0.0154362
766.701	0.0155110
766.780	0.0155042
766.858	0.0155075
766.936	0.0155990
767.014	0.0154892
767.092	0.0156271
767.170	0.0156989
767.248	0.0156470
767.326	0.0154086
767.405	0.0154366
767.483	0.0154700
767.561	0.0153757
767.639	0.0152463
767.717	0.0151279
767.795	0.0151420
767.873	0.0151406
767.951	0.0151111
768.030	0.0149536
768.108	0.0149078
768.186	0.0150716
768.264	0.0151391
768.342	0.0151593
768.420	0.0150169
768.498	0.0150477
768.576	0.0150636
768.655	0.0152580
768.733	0.0154735
768.811	0.0153033
768.889	0.0154359
768.967	0.0155806
769.045	0.0156200
769.123	0.0157396
769.201	0.0157448
769.280	0.0157566
769.358	0.0156842
769.436	0.0156690
769.514	0.0158797
769.592	0.0157366
769.670	0.0156406
769.748	0.0156805
769.826	0.0156500
769.905	0.0155630
769.983	0.0155607
770.061	0.0154571
770.139	0.0154953
770.217	0.0154842
770.295	0.0153075
770.373	0.0153323
770.451	0.0153418
770.530	0.0152267
770.608	0.0151825
770.686	0.0151533
770.764	0.0150954
770.842	0.0151355
770.920	0.0150811
770.998	0.0151577
771.076	0.0151294
771.155	0.0151579
771.233	0.0151418
771.311	0.0151707
771.389	0.0152115
771.467	0.0154244
771.545	0.0154208
771.623	0.0153764
771.701	0.0153592
771.780	0.0155640
771.858	0.0155555
771.936	0.0153731
772.014	0.0156759
772.092	0.0156702
772.170	0.0156190
772.248	0.0156432
772.326	0.0156903
772.405	0.0157074
772.483	0.0156365
772.561	0.0157818
772.639	0.0158212
772.717	0.0157275
772.795	0.0156828
772.873	0.0157367
772.951	0.0156083
773.030	0.0157483
773.108	0.0155978
773.186	0.0155932
773.264	0.0155883
773.342	0.0155231
773.420	0.0156334
773.498	0.0156044
773.576	0.0154001
773.655	0.0154501
773.733	0.0155196
773.811	0.0154563
773.889	0.0154793
773.967	0.0154324
774.045	0.0154115
774.123	0.0153116
774.201	0.0153934
774.280	0.0153532
774.358	0.0154577
774.436	0.0155656
774.514	0.0155018
774.592	0.0154115
774.670	0.0154576
774.748	0.0153491
774.826	0.0155309
774.905	0.0156532
774.983	0.0154720
775.061	0.0153274
775.139	0.0155342
775.217	0.0155743
775.295	0.0154636
775.373	0.0154011
775.451	0.0154686
775.530	0.0153300
775.608	0.0153779
775.686	0.0152845
775.764	0.0152194
775.842	0.0152591
775.920	0.0151983
775.998	0.0153128
776.076	0.0153352
776.155	0.0151486
776.233	0.0153351
776.311	0.0150935
776.389	0.0152036
776.467	0.0152187
776.545	0.0152948
776.623	0.0152315
776.701	0.0154879
776.780	0.0155436
776.858	0.0156035
776.936	0.0156152
777.014	0.0156567
777.092	0.0156588
777.170	0.0158126
777.248	0.0156820
777.326	0.0157916
777.405	0.0158462
777.483	0.0157307
777.561	0.0160052
777.639	0.0158680
777.717	0.0157360
777.795	0.0157053
777.873	0.0157108
777.951	0.0156805
778.030	0.0156396
778.108	0.0157089
778.186	0.0157166
778.264	0.0154990
778.342	0.0154453
778.420	0.0153474
778.498	0.0153833
778.576	0.0153009
778.655	0.0150862
778.733	0.0152953
778.811	0.0152708
778.889	0.0151074
778.967	0.0151202
779.045	0.0152016
779.123	0.0151158
779.201	0.0150830
779.280	0.0152424
779.358	0.0154028
779.436	0.0151736
779.514	0.0150603
779.592	0.0154082
779.670	0.0153371
779.748	0.0153388
779.826	0.0155058
779.905	0.0154187
779.983	0.0154015
780.061	0.0154382
780.139	0.0155901
780.217	0.0156916
780.295	0.0156388
780.373	0.0156495
780.451	0.0156519
780.530	0.0156142
780.608	0.0156224
780.686	0.0158344
780.764	0.0157011
780.842	0.0157784
780.920	0.0157317
780.998	0.0156123
781.076	0.0157101
781.155	0.0156814
781.233	0.0156277
781.311	0.0156322
781.389	0.0156540
781.467	0.0154668
781.545	0.0155650
781.623	0.0154726
781.701	0.0155470
781.780	0.0154266
781.858	0.0155582
781.936	0.0155644
782.014	0.0155456
782.092	0.0155599
782.170	0.0155663
782.248	0.0156906
782.326	0.0156939
782.405	0.0157670
782.483	0.0156664
782.561	0.0157657
782.639	0.0157781
782.717	0.0157870
782.795	0.0156775
782.873	0.0158624
782.951	0.0157522
783.030	0.0156631
783.108	0.0155737
783.186	0.0156901
783.264	0.0155726
783.342	0.0155978
783.420	0.0155048
783.498	0.0153667
783.576	0.0153514
783.655	0.0154001
783.733	0.0152193
783.811	0.0151077
783.889	0.0150198
783.967	0.0151490
784.045	0.0151225
784.123	0.0150982
784.201	0.0150018
784.280	0.0149471
784.358	0.0148920
784.436	0.0149229
784.514	0.0151005
784.592	0.0151189
784.670	0.0152419
784.748	0.0151339
784.826	0.0152445
784.905	0.0153056
784.983	0.0152618
785.061	0.0154906
785.139	0.0155522
785.217	0.0155059
785.295	0.0153925
785.373	0.0155663
785.451	0.0157049
785.530	0.0156465
785.608	0.0156786
785.686	0.0155888
785.764	0.0154627
785.842	0.0156898
785.920	0.0156773
785.998	0.0155639
786.076	0.0155254
786.155	0.0157097
786.233	0.0156484
786.311	0.0155878
786.389	0.0156646
786.467	0.0155701
786.545	0.0154702
786.623	0.0155251
786.701	0.0156249
786.780	0.0154397
786.858	0.0153741
786.936	0.0153648
787.014	0.0155755
787.092	0.0155154
787.170	0.0154845
787.248	0.0153936
787.326	0.0154321
787.405	0.0156376
787.483	0.0156692
787.561	0.0157307
787.639	0.0156333
787.717	0.0155635
787.795	0.0156725
787.873	0.0157829
787.951	0.0154592
788.030	0.0155898
788.108	0.0156709
788.186	0.0155592
788.264	0.0155495
788.342	0.0155421
788.420	0.0155222
788.498	0.0155546
788.576	0.0152679
788.655	0.0153851
788.733	0.0152924
788.811	0.0152193
788.889	0.0152482
788.967	0.0152319
789.045	0.0151752
789.123	0.0154148
789.201	0.0152695
789.280	0.0151099
789.358	0.0151484
789.436	0.0152916
789.514	0.0153571
789.592	0.0154572
789.670	0.0153933
789.748	0.0154528
789.826	0.0154704
789.905	0.0155999
789.983	0.0155921
790.061	0.0155862
790.139	0.0157468
790.217	0.0159170
790.295	0.0155670
790.373	0.0156408
790.451	0.0157221
790.530	0.0156728
790.608	0.0158016
790.686	0.0156927
790.764	0.0156503
790.842	0.0156153
790.920	0.0155247
790.998	0.0155526
791.076	0.0153130
791.155	0.0154524
791.233	0.0152711
791.311	0.0151993
791.389	0.0149620
791.467	0.0149078
791.545	0.0149619
791.623	0.0147348
791.701	0.0147832
791.780	0.0147767
791.858	0.0148053
791.936	0.0149304
792.014	0.0147351
792.092	0.0148721
792.170	0.0149817
792.248	0.0149438
792.326	0.0150426
792.405	0.0151679
792.483	0.0152099
792.561	0.0151575
792.639	0.0153329
792.717	0.0153409
792.795	0.0153814
792.873	0.0155658
792.951	0.0156573
793.030	0.0157428
793.108	0.0157656
793.186	0.0157593
793.264	0.0157372
793.342	0.0157342
793.420	0.0157717
793.498	0.0158752
793.576	0.0159502
793.655	0.0156976
793.733	0.0158037
793.811	0.0157499
793.889	0.0157071
793.967	0.0157150
794.045	0.0157600
794.123	0.0157525
794.201	0.0157020
794.280	0.0157755
794.358	0.0157579
794.436	0.0158421
794.514	0.0157368
794.592	0.0156681
794.670	0.0156795
794.748	0.0156277
794.826	0.0157625
794.905	0.0156904
794.983	0.0156968
795.061	0.0160174
795.139	0.0158100
795.217	0.0157497
795.295	0.0158405
795.373	0.0158842
795.451	0.0157243
795.530	0.0159304
795.608	0.0159514
795.686	0.0158125
795.764	0.0158422
795.842	0.0156367
795.920	0.0156903
795.998	0.0157112
796.076	0.0155972
796.155	0.0155064
796.233	0.0153654
796.311	0.0152304
796.389	0.0151593
796.467	0.0150172
796.545	0.0149558
796.623	0.0148178
796.701	0.0146423
796.780	0.0147061
796.858	0.0144634
796.936	0.0144261
797.014	0.0144609
797.092	0.0144788
797.170	0.0144810
797.248	0.0145615
797.326	0.0146017
797.405	0.0146697
797.483	0.0147279
797.561	0.0147890
797.639	0.0148158
797.717	0.0149960
797.795	0.0152157
797.873	0.0152101
797.951	0.0153016
798.030	0.0152808
798.108	0.0153458
798.186	0.0154273
798.264	0.0154655
798.342	0.0157393
798.420	0.0155598
798.498	0.0156577
798.576	0.0156757
798.655	0.0156319
798.733	0.0156487
798.811	0.0156187
798.889	0.0157604
798.967	0.0156042
799.045	0.0157816
799.123	0.0157249
799.201	0.0158318
799.280	0.0157461
799.358	0.0157601
799.436	0.0158208
799.514	0.0157624
799.592	0.0158617
799.670	0.0160246
799.748	0.0161816
799.826	0.0161665
799.905	0.0162943
799.983	0.0162678
800.061	0.0164127
800.139	0.0164259
800.217	0.0164707
800.295	0.0165761
800.373	0.0163615
800.451	0.0164769
800.530	0.0164138
800.608	0.0161043
800.686	0.0162605
800.764	0.0161293
800.842	0.0158134
800.920	0.0158517
800.998	0.0156835
801.076	0.0154454
801.155	0.0154240
801.233	0.0153136
801.311	0.0151826
801.389	0.0148891
801.467	0.0147254
801.545	0.0146429
801.623	0.0145020
801.701	0.0143509
801.780	0.0143757
801.858	0.0143397
801.936	0.0142531
802.014	0.0142416
802.092	0.0141818
802.170	0.0141239
802.248	0.0143470
802.326	0.0143968
802.405	0.0144513
802.483	0.0143758
802.561	0.0146087
802.639	0.0146238
802.717	0.0147516
802.795	0.0149380
802.873	0.0149409
802.951	0.0151128
803.030	0.0150460
803.108	0.0152662
803.186	0.0154727
803.264	0.0154458
803.342	0.0155298
803.420	0.0155704
803.498	0.0156448
803.576	0.0157456
803.655	0.0157677
803.733	0.0158065
803.811	0.0159309
803.889	0.0159784
803.967	0.0158761
804.045	0.0158830
804.123	0.0157085
804.201	0.0159452
804.280	0.0156965
804.358	0.0157207
804.436	0.0158430
804.514	0.0159176
804.592	0.0159270
804.670	0.0158307
804.748	0.0158485
804.826	0.0160288
804.905	0.0159933
804.983	0.0160083
805.061	0.0161921
805.139	0.0161144
805.217	0.0162062
805.295	0.0162238
805.373	0.0163823
805.451	0.0162464
805.530	0.0163464
805.608	0.0164019
805.686	0.0163283
805.764	0.0163575
805.842	0.0164587
805.920	0.0163454
805.998	0.0162844
806.076	0.0161820
806.155	0.0161681
806.233	0.0159679
806.311	0.0158386
806.389	0.0157732
806.467	0.0156228
806.545	0.0156955
806.623	0.0155551
806.701	0.0153551
806.780	0.0152183
806.858	0.0148459
806.936	0.0147324
807.014	0.0145811
807.092	0.0146765
807.170	0.0146125
807.248	0.0143164
807.326	0.0142609
807.405	0.0143308
807.483	0.0141921
807.561	0.0140903
807.639	0.0141371
807.717	0.0142372
807.795	0.0141966
807.873	0.0141901
807.951	0.0143841
808.030	0.0143446
808.108	0.0145155
808.186	0.0145319
808.264	0.0147151
808.342	0.0148579
808.420	0.0149203
808.498	0.0150696
808.576	0.0151949
808.655	0.0153402
808.733	0.0153706
808.811	0.0155082
808.889	0.0155528
808.967	0.0156835
809.045	0.0155529
809.123	0.0156252
809.201	0.0158212
809.280	0.0158750
809.358	0.0157046
809.436	0.0159372
809.514	0.0157927
809.592	0.0157326
809.670	0.0160198
809.748	0.0160375
809.826	0.0158228
809.905	0.0160226
809.983	0.0158305
810.061	0.0159612
810.139	0.0159010
810.217	0.0159893
810.295	0.0160501
810.373	0.0161003
810.451	0.0159233
810.530	0.0160264
810.608	0.0162589
810.686	0.0163002
810.764	0.0160949
810.842	0.0161758
810.920	0.0162416
810.998	0.0163467
811.076	0.0162792
811.155	0.0163055
811.233	0.0162710
811.311	0.0163058
811.389	0.0163464
811.467	0.0161262
811.545	0.0160647
811.623	0.0159759
811.701	0.0158955
811.780	0.0159780
811.858	0.0157250
811.936	0.0154977
812.014	0.0154863
812.092	0.0154194
812.170	0.0153128
812.248	0.0149310
812.326	0.0149411
812.405	0.0148498
812.483	0.0146155
812.561	0.0145580
812.639	0.0144669
812.717	0.0143089
812.795	0.0143058
812.873	0.0141873
812.951	0.0141021
813.030	0.0140984
813.108	0.0141525
813.186	0.0141848
813.264	0.0142950
813.342	0.0143562
813.420	0.0143137
813.498	0.0142902
813.576	0.0143228
813.655	0.0144918
813.733	0.0146594
813.811	0.0148003
813.889	0.0148461
813.967	0.0150122
814.045	0.0151985
814.123	0.0152494
814.201	0.0152775
814.280	0.0153745
814.358	0.0154900
814.436	0.0155474
814.514	0.0158463
814.592	0.0158913
814.670	0.0159021
814.748	0.0160626
814.826	0.0158856
814.905	0.0159071
814.983	0.0160375
815.061	0.0160178
815.139	0.0159354
815.217	0.0158383
815.295	0.0160004
815.373	0.0160212
815.451	0.0160296
815.530	0.0160809
815.608	0.0157838
815.686	0.0157006
815.764	0.0159491
815.842	0.0158374
815.920	0.0158691
815.998	0.0159051
816.076	0.0160037
816.155	0.0160458
816.233	0.0159592
816.311	0.0159017
816.389	0.0160252
816.467	0.0161014
816.545	0.0160645
816.623	0.0160688
816.701	0.0159884
816.780	0.0160319
816.858	0.0158990
816.936	0.0159829
817.014	0.0159155
817.092	0.0158957
817.170	0.0156902
817.248	0.0156351
817.326	0.0155863
817.405	0.0155147
817.483	0.0154939
817.561	0.0154469
817.639	0.0152078
817.717	0.0151431
817.795	0.0151335
817.873	0.0148865
817.951	0.0147350
818.030	0.0147532
818.108	0.0147166
818.186	0.0145803
818.264	0.0146265
818.342	0.0145975
818.420	0.0144611
818.498	0.0146014
818.576	0.0143182
818.655	0.0144812
818.733	0.0145676
818.811	0.0145940
818.889	0.0145627
818.967	0.0147070
819.045	0.0148181
819.123	0.0149308
819.201	0.0148895
819.280	0.0151002
819.358	0.0152157
819.436	0.0152670
819.514	0.0153220
819.592	0.0152934
819.670	0.0155628
819.748	0.0156125
819.826	0.0158076
819.905	0.0156873
819.983	0.0157900
820.061	0.0159164
820.139	0.0159281
820.217	0.0159586
820.295	0.0159797
820.373	0.0160802
820.451	0.0158781
820.530	0.0158041
820.608	0.0159914
820.686	0.0158867
820.764	0.0159047
820.842	0.0157997
820.920	0.0158145
820.998	0.0158360
821.076	0.0157908
821.155	0.0156883
821.233	0.0158186
821.311	0.0158108
821.389	0.0156609
821.467	0.0155481
821.545	0.0155949
821.623	0.0156232
821.701	0.0154556
821.780	0.0155194
821.858	0.0156342
821.936	0.0155685
822.014	0.0154901
822.092	0.0154497
822.170	0.0154731
822.248	0.0156053
822.326	0.0154566
822.405	0.0154118
822.483	0.0153133
822.561	0.0155314
822.639	0.0153777
822.717	0.0152501
822.795	0.0154639
822.873	0.0154887
822.951	0.0154402
823.030	0.0152167
823.108	0.0152361
823.186	0.0151752
823.264	0.0150754
823.342	0.0150677
823.420	0.0150607
823.498	0.0149574
823.576	0.0149570
823.655	0.0149341
823.733	0.0149691
823.811	0.0149852
823.889	0.0148360
823.967	0.0147121
824.045	0.0149108
824.123	0.0148856
824.201	0.0150433
824.280	0.0149567
824.358	0.0150428
824.436	0.0151694
824.514	0.0152460
824.592	0.0154623
824.670	0.0152884
824.748	0.0153593
824.826	0.0155444
824.905	0.0156278
824.983	0.0157056
825.061	0.0157227
825.139	0.0157552
825.217	0.0157813
825.295	0.0158686
825.373	0.0159226
825.451	0.0159125
825.530	0.0158483
825.608	0.0157451
825.686	0.0156903
825.764	0.0158729
825.842	0.0155998
825.920	0.0156057
825.998	0.0156950
826.076	0.0156763
826.155	0.0156720
826.233	0.0157537
826.311	0.0156581
826.389	0.0155100
826.467	0.0153655
826.545	0.0155066
826.623	0.0154250
826.701	0.0154768
826.780	0.0153685
826.858	0.0153572
826.936	0.0154070
827.014	0.0154086
827.092	0.0154736
827.170	0.0155117
827.248	0.0154254
827.326	0.0154352
827.405	0.0154653
827.483	0.0153820
827.561	0.0154211
827.639	0.0154281
827.717	0.0155616
827.795	0.0154980
827.873	0.0155502
827.951	0.0154324
828.030	0.0154283
828.108	0.0154495
828.186	0.0152773
828.264	0.0153704
828.342	0.0153603
828.420	0.0153701
828.498	0.0153745
828.576	0.0154522
828.655	0.0154148
828.733	0.0153555
828.811	0.0153618
828.889	0.0151477
828.967	0.0153941
829.045	0.0153519
829.123	0.0153302
829.201	0.0153379
829.280	0.0151626
829.358	0.0153164
829.436	0.0153294
829.514	0.0153606
829.592	0.0153787
829.670	0.0154377
829.748	0.0154201
829.826	0.0152599
829.905	0.0153747
829.983	0.0154980
830.061	0.0155904
830.139	0.0154044
830.217	0.0155850
830.295	0.0157031
830.373	0.0156430
830.451	0.0156344
830.530	0.0156940
830.608	0.0158067
830.686	0.0160271
830.764	0.0159064
830.842	0.0157791
830.920	0.0158060
830.998	0.0157864
831.076	0.0156874
831.155	0.0157509
831.233	0.0157365
831.311	0.0155185
831.389	0.0155648
831.467	0.0155858
831.545	0.0154547
831.623	0.0153603
831.701	0.0155081
831.780	0.0154421
831.858	0.0152914
831.936	0.0153439
832.014	0.0152814
832.092	0.0150759
832.170	0.0149683
832.248	0.0152083
832.326	0.0152040
832.405	0.0150518
832.483	0.0153049
832.561	0.0152804
832.639	0.0152462
832.717	0.0152991
832.795	0.0152120
832.873	0.0153554
832.951	0.0153349
833.030	0.0152848
833.108	0.0153528
833.186	0.0154305
833.264	0.0152239
833.342	0.0153561
833.420	0.0153814
833.498	0.0152192
833.576	0.0152509
833.655	0.0152675
833.733	0.0152633
833.811	0.0153952
833.889	0.0153938
833.967	0.0153416
834.045	0.0153111
834.123	0.0153225
834.201	0.0155035
834.280	0.0153339
834.358	0.0152721
834.436	0.0154090
834.514	0.0153993
834.592	0.0154352
834.670	0.0153863
834.748	0.0154798
834.826	0.0154651
834.905	0.0154956
834.983	0.0155901
835.061	0.0156708
835.139	0.0156591
835.217	0.0156389
835.295	0.0155914
835.373	0.0156884
835.451	0.0156895
835.530	0.0157307
835.608	0.0156337
835.686	0.0156789
835.764	0.0157760
835.842	0.0157051
835.920	0.0157262
835.998	0.0155860
836.076	0.0156049
836.155	0.0156540
836.233	0.0155984
836.311	0.0156280
836.389	0.0155900
836.467	0.0154915
836.545	0.0155559
836.623	0.0155598
836.701	0.0154346
836.780	0.0153424
836.858	0.0152766
836.936	0.0152557
837.014	0.0152530
837.092	0.0152782
837.170	0.0153390
837.248	0.0152481
837.326	0.0151175
837.405	0.0150452
837.483	0.0150505
837.561	0.0151353
837.639	0.0150340
837.717	0.0151176
837.795	0.0149764
837.873	0.0150896
837.951	0.0150200
838.030	0.0151226
838.108	0.0150385
838.186	0.0150457
838.264	0.0151596
838.342	0.0152809
838.420	0.0152175
838.498	0.0152340
838.576	0.0151828
838.655	0.0153290
838.733	0.0153508
838.811	0.0152482
838.889	0.0153252
838.967	0.0154936
839.045	0.0154312
839.123	0.0152266
839.201	0.0153963
839.280	0.0154010
839.358	0.0153670
839.436	0.0153651
839.514	0.0154317
839.592	0.0152603
839.670	0.0153967
839.748	0.0154617
839.826	0.0155173
839.905	0.0153371
839.983	0.0154061
840.061	0.0154959
840.139	0.0156013
840.217	0.0153913
840.295	0.0156088
840.373	0.0154615
840.451	0.0155676
840.530	0.0156030
840.608	0.0156630
840.686	0.0155959
840.764	0.0156719
840.842	0.0156200
840.920	0.0155886
840.998	0.0156866
841.076	0.0156451
841.155	0.0157932
841.233	0.0158158
841.311	0.0157140
841.389	0.0157178
841.467	0.0158296
841.545	0.0157984
841.623	0.0157397
841.701	0.0157793
841.780	0.0158900
841.858	0.0156713
841.936	0.0157846
842.014	0.0157974
842.092	0.0157700
842.170	0.0157907
842.248	0.0155264
842.326	0.0155719
842.405	0.0155537
842.483	0.0155218
842.561	0.0154501
842.639	0.0153442
842.717	0.0152254
842.795	0.0152420
842.873	0.0152354
842.951	0.0151484
843.030	0.0150832
843.108	0.0150929
843.186	0.0150755
843.264	0.0150489
843.342	0.0148033
843.420	0.0148588
843.498	0.0150327
843.576	0.0149546
843.655	0.0149847
843.733	0.0149640
843.811	0.0151952
843.889	0.0151990
843.967	0.0150385
844.045	0.0151299
844.123	0.0150963
844.201	0.0152072
844.280	0.0152484
844.358	0.0153009
844.436	0.0152031
844.514	0.0153561
844.592	0.0152142
844.670	0.0153931
844.748	0.0152620
844.826	0.0153494
844.905	0.0154259
844.983	0.0153960
845.061	0.0153495
845.139	0.0153931
845.217	0.0154340
845.295	0.0153101
845.373	0.0154691
845.451	0.0155568
845.530	0.0155145
845.608	0.0156078
845.686	0.0155949
845.764	0.0154611
845.842	0.0155590
845.920	0.0157275
845.998	0.0155933
846.076	0.0156277
846.155	0.0156207
846.233	0.0156273
846.311	0.0157380
846.389	0.0157468
846.467	0.0158932
846.545	0.0156297
846.623	0.0158176
846.701	0.0158169
846.780	0.0158147
846.858	0.0158747
846.936	0.0157840
847.014	0.0157375
847.092	0.0157175
847.170	0.0158094
847.248	0.0158679
847.326	0.0156809
847.405	0.0155996
847.483	0.0156656
847.561	0.0156155
847.639	0.0154043
847.717	0.0155141
847.795	0.0153571
847.873	0.0154649
847.951	0.0154980
848.030	0.0154752
848.108	0.0155002
848.186	0.0154421
848.264	0.0153646
848.342	0.0152239
848.420	0.0152196
848.498	0.0152442
848.576	0.0153772
848.655	0.0151661
848.733	0.0151502
848.811	0.0152354
848.889	0.0150560
848.967	0.0151333
849.045	0.0151649
849.123	0.0151578
849.201	0.0152013
849.280	0.0151860
849.358	0.0151213
849.436	0.0152702
849.514	0.0152010
849.592	0.0152228
849.670	0.0152277
849.748	0.0152547
849.826	0.0153355
849.905	0.0154715
849.983	0.0154763
850.061	0.0155080
850.139	0.0154261
850.217	0.0154474
850.295	0.0154817
850.373	0.0153143
850.451	0.0154369
850.530	0.0155113
850.608	0.0154321
850.686	0.0154409
850.764	0.0155329
850.842	0.0154453
850.920	0.0154381
850.998	0.0154579
851.076	0.0154538
851.155	0.0155855
851.233	0.0155997
851.311	0.0157035
851.389	0.0157132
851.467	0.0155141
851.545	0.0156961
851.623	0.0156926
851.701	0.0157590
851.780	0.0157953
851.858	0.0157599
851.936	0.0157828
852.014	0.0157543
852.092	0.0158868
852.170	0.0157452
852.248	0.0157014
852.326	0.0157548
852.405	0.0156294
852.483	0.0157282
852.561	0.0157442
852.639	0.0156721
852.717	0.0156111
852.795	0.0155344
852.873	0.0156188
852.951	0.0154060
853.030	0.0154333
853.108	0.0155539
853.186	0.0154993
853.264	0.0154891
853.342	0.0154233
853.420	0.0153628
853.498	0.0154939
853.576	0.0154427
853.655	0.0153477
853.733	0.0155229
853.811	0.0153640
853.889	0.0154129
853.967	0.0154230
854.045	0.0153299
854.123	0.0152108
854.201	0.0152612
854.280	0.0152328
854.358	0.0152814
854.436	0.0152872
854.514	0.0153302
854.592	0.0153191
854.670	0.0152792
854.748	0.0151330
854.826	0.0151392
854.905	0.0151683
854.983	0.0150938
855.061	0.0151743
855.139	0.0152395
855.217	0.0151904
855.295	0.0154321
855.373	0.0153139
855.451	0.0153263
855.530	0.0153349
855.608	0.0152642
855.686	0.0153737
855.764	0.0152588
855.842	0.0153033
855.920	0.0153309
855.998	0.0152426
856.076	0.0154270
856.155	0.0153206
856.233	0.0154159
856.311	0.0152541
856.389	0.0153018
856.467	0.0154179
856.545	0.0155330
856.623	0.0155566
856.701	0.0155157
856.780	0.0154800
856.858	0.0155373
856.936	0.0155932
857.014	0.0155605
857.092	0.0154780
857.170	0.0155972
857.248	0.0156069
857.326	0.0155212
857.405	0.0154597
857.483	0.0156904
857.561	0.0156133
857.639	0.0156325
857.717	0.0155778
857.795	0.0156948
857.873	0.0156834
857.951	0.0157738
858.030	0.0155526
858.108	0.0156865
858.186	0.0154600
858.264	0.0156010
858.342	0.0155325
858.420	0.0156230
858.498	0.0156127
858.576	0.0155619
858.655	0.0154082
858.733	0.0154084
858.811	0.0153626
858.889	0.0154362
858.967	0.0154627
859.045	0.0153772
859.123	0.0152006
859.201	0.0154237
859.280	0.0153268
859.358	0.0153473
859.436	0.0154942
859.514	0.0153784
859.592	0.0153602
859.670	0.0153683
859.748	0.0154846
859.826	0.0153780
859.905	0.0153674
859.983	0.0154334
860.061	0.0154663
860.139	0.0154379
860.217	0.0153594
860.295	0.0154440
860.373	0.0154250
860.451	0.0153831
860.530	0.0153146
860.608	0.0154369
860.686	0.0153603
860.764	0.0153341
860.842	0.0152589
860.920	0.0152780
860.998	0.0154305
861.076	0.0152792
861.155	0.0152227
861.233	0.0152371
861.311	0.0152934
861.389	0.0153151
861.467	0.0153331
861.545	0.0151955
861.623	0.0154059
861.701	0.0153349
861.780	0.0154060
861.858	0.0154774
861.936	0.0153892
862.014	0.0154424
862.092	0.0154218
862.170	0.0154330
862.248	0.0155944
862.326	0.0154962
862.405	0.0156367
862.483	0.0154919
862.561	0.0156031
862.639	0.0155540
862.717	0.0155592
862.795	0.0155094
862.873	0.0155943
862.951	0.0155550
863.030	0.0155218
863.108	0.0154287
863.186	0.0155603
863.264	0.0153539
863.342	0.0154177
863.420	0.0156303
863.498	0.0156209
863.576	0.0154781
863.655	0.0154851
863.733	0.0155199
863.811	0.0154929
863.889	0.0155663
863.967	0.0155592
864.045	0.0155849
864.123	0.0156106
864.201	0.0156265
864.280	0.0155274
864.358	0.0155509
864.436	0.0154589
864.514	0.0154634
864.592	0.0153526
864.670	0.0155087
864.748	0.0156081
864.826	0.0153048
864.905	0.0154396
864.983	0.0154658
865.061	0.0154181
865.139	0.0152833
865.217	0.0153057
865.295	0.0153739
865.373	0.0151989
865.451	0.0152451
865.530	0.0153084
865.608	0.0154143
865.686	0.0151921
865.764	0.0153251
865.842	0.0154519
865.920	0.0154502
865.998	0.0154935
866.076	0.0154033
866.155	0.0153269
866.233	0.0154597
866.311	0.0154067
866.389	0.0154659
866.467	0.0153082
866.545	0.0153702
866.623	0.0153798
866.701	0.0152863
866.780	0.0152956
866.858	0.0151621
866.936	0.0153905
867.014	0.0152348
867.092	0.0152345
867.170	0.0152339
867.248	0.0153042
867.326	0.0152742
867.405	0.0152141
867.483	0.0152374
867.561	0.0152814
867.639	0.0153641
867.717	0.0153883
867.795	0.0154941
867.873	0.0154450
867.951	0.0154941
868.030	0.0154514
868.108	0.0155343
868.186	0.0156081
868.264	0.0154819
868.342	0.0155289
868.420	0.0155103
868.498	0.0155428
868.576	0.0156690
868.655	0.0154852
868.733	0.0155435
868.811	0.0155115
868.889	0.0155058
868.967	0.0156254
869.045	0.0156810
869.123	0.0155386
869.201	0.0155238
869.280	0.0155853
869.358	0.0155495
869.436	0.0155855
869.514	0.0155732
869.592	0.0156004
869.670	0.0156140
869.748	0.0156661
869.826	0.0157251
869.905	0.0155155
869.983	0.0155571
870.061	0.0155556
870.139	0.0156831
870.217	0.0157313
870.295	0.0155613
870.373	0.0155690
870.451	0.0156495
870.530	0.0155081
870.608	0.0155895
870.686	0.0156335
870.764	0.0155522
870.842	0.0154798
870.920	0.0154951
870.998	0.0155234
871.076	0.0154893
871.155	0.0154564
871.233	0.0155289
871.311	0.0154435
871.389	0.0155402
871.467	0.0153096
871.545	0.0153294
871.623	0.0155202
871.701	0.0153901
871.780	0.0153811
871.858	0.0154549
871.936	0.0153415
872.014	0.0153752
872.092	0.0154398
872.170	0.0154068
872.248	0.0154160
872.326	0.0153061
872.405	0.0153966
872.483	0.0154730
872.561	0.0153898
872.639	0.0153347
872.717	0.0153687
872.795	0.0154420
872.873	0.0154774
872.951	0.0156289
873.030	0.0153745
873.108	0.0155077
873.186	0.0156025
873.264	0.0155261
873.342	0.0154872
873.420	0.0155663
873.498	0.0154227
873.576	0.0155528
873.655	0.0153818
873.733	0.0154827
873.811	0.0153619
873.889	0.0154810
873.967	0.0155825
874.045	0.0154256
874.123	0.0154485
874.201	0.0153930
874.280	0.0154875
874.358	0.0156184
874.436	0.0155300
874.514	0.0155645
874.592	0.0154031
874.670	0.0155122
874.748	0.0154450
874.826	0.0154762
874.905	0.0155320
874.983	0.0155270
875.061	0.0154366
875.139	0.0155057
875.217	0.0154787
875.295	0.0155612
875.373	0.0154636
875.451	0.0154391
875.530	0.0154151
875.608	0.0155551
875.686	0.0155233
875.764	0.0153980
875.842	0.0154979
875.920	0.0153649
875.998	0.0155774
876.076	0.0155466
876.155	0.0154647
876.233	0.0154436
876.311	0.0154419
876.389	0.0155547
876.467	0.0156520
876.545	0.0154965
876.623	0.0154896
876.701	0.0154897
876.780	0.0154244
876.858	0.0156015
876.936	0.0155803
877.014	0.0155189
877.092	0.0154444
877.170	0.0154354
877.248	0.0154465
877.326	0.0154446
877.405	0.0153307
877.483	0.0154310
877.561	0.0155203
877.639	0.0155189
877.717	0.0153866
877.795	0.0153473
877.873	0.0154843
877.951	0.0155275
878.030	0.0154976
878.108	0.0154411
878.186	0.0153998
878.264	0.0154529
878.342	0.0154817
878.420	0.0154215
878.498	0.0153649
878.576	0.0152811
878.655	0.0154697
878.733	0.0153059
878.811	0.0153378
878.889	0.0153136
878.967	0.0153641
879.045	0.0152927
879.123	0.0152299
879.201	0.0152152
879.280	0.0152725
879.358	0.0153170
879.436	0.0153768
879.514	0.0153737
879.592	0.0152469
879.670	0.0154545
879.748	0.0153628
879.826	0.0153737
879.905	0.0154803
879.983	0.0153991
880.061	0.0153671
880.139	0.0155133
880.217	0.0155090
880.295	0.0153896
880.373	0.0155437
880.451	0.0156306
880.530	0.0155705
880.608	0.0156319
880.686	0.0155952
880.764	0.0154823
880.842	0.0154535
880.920	0.0155284
880.998	0.0155386
881.076	0.0155686
881.155	0.0156738
881.233	0.0156957
881.311	0.0157234
881.389	0.0154978
881.467	0.0154636
881.545	0.0155650
881.623	0.0156137
881.701	0.0155515
881.780	0.0155883
881.858	0.0155389
881.936	0.0155775
882.014	0.0156036
882.092	0.0154265
882.170	0.0153658
882.248	0.0155844
882.326	0.0154692
882.405	0.0156065
882.483	0.0155812
882.561	0.0154491
882.639	0.0153527
882.717	0.0153932
882.795	0.0153482
882.873	0.0152952
882.951	0.0153460
883.030	0.0154918
883.108	0.0153574
883.186	0.0154322
883.264	0.0153065
883.342	0.0153943
883.420	0.0153651
883.498	0.0153279
883.576	0.0151405
883.655	0.0154298
883.733	0.0152663
883.811	0.0152560
883.889	0.0152451
883.967	0.0154684
884.045	0.0153818
884.123	0.0154630
884.201	0.0153841
884.280	0.0156626
884.358	0.0156885
884.436	0.0156345
884.514	0.0157919
884.592	0.0157318
884.670	0.0157733
884.748	0.0158553
884.826	0.0159520
884.905	0.0158781
884.983	0.0159517
885.061	0.0158645
885.139	0.0158347
885.217	0.0157899
885.295	0.0156959
885.373	0.0156656
885.451	0.0156393
885.530	0.0155073
885.608	0.0154878
885.686	0.0151680
885.764	0.0151930
885.842	0.0151748
885.920	0.0150768
885.998	0.0152208
886.076	0.0150261
886.155	0.0149771
886.233	0.0149318
886.311	0.0151160
886.389	0.0150838
886.467	0.0151077
886.545	0.0151884
886.623	0.0151520
886.701	0.0152421
886.780	0.0152699
886.858	0.0152536
886.936	0.0153798
887.014	0.0155424
887.092	0.0154882
887.170	0.0152511
887.248	0.0156906
887.326	0.0155170
887.405	0.0156355
887.483	0.0156186
887.561	0.0155380
887.639	0.0156231
887.717	0.0155502
887.795	0.0156705
887.873	0.0155356
887.951	0.0154345
888.030	0.0154655
888.108	0.0153687
888.186	0.0154191
888.264	0.0154227
888.342	0.0154347
888.420	0.0153768
888.498	0.0154356
888.576	0.0151820
888.655	0.0152694
888.733	0.0153696
888.811	0.0153711
888.889	0.0152165
888.967	0.0153383
889.045	0.0152564
889.123	0.0154948
889.201	0.0154496
889.280	0.0155338
889.358	0.0156196
889.436	0.0157179
889.514	0.0155685
889.592	0.0158237
889.670	0.0157565
889.748	0.0155779
889.826	0.0156731
889.905	0.0157997
889.983	0.0156289
890.061	0.0156107
890.139	0.0156464
890.217	0.0155274
890.295	0.0155273
890.373	0.0154736
890.451	0.0154719
890.530	0.0155347
890.608	0.0153877
890.686	0.0152284
890.764	0.0153114
890.842	0.0153696
890.920	0.0151887
890.998	0.0152401
891.076	0.0151591
891.155	0.0152025
891.233	0.0151207
891.311	0.0151400
891.389	0.0152053
891.467	0.0152607
891.545	0.0152161
891.623	0.0151414
891.701	0.0152537
891.780	0.0153822
891.858	0.0154505
891.936	0.0154572
892.014	0.0155016
892.092	0.0154846
892.170	0.0153751
892.248	0.0156125
892.326	0.0156163
892.405	0.0155756
892.483	0.0156238
892.561	0.0156715
892.639	0.0156325
892.717	0.0156555
892.795	0.0157476
892.873	0.0155630
892.951	0.0155524
893.030	0.0157191
893.108	0.0156841
893.186	0.0155386
893.264	0.0156830
893.342	0.0154903
893.420	0.0155079
893.498	0.0153954
893.576	0.0154310
893.655	0.0153825
893.733	0.0152308
893.811	0.0153400
893.889	0.0153043
893.967	0.0152475
894.045	0.0152972
894.123	0.0153701
894.201	0.0153464
894.280	0.0154270
894.358	0.0154501
894.436	0.0154588
894.514	0.0154434
894.592	0.0153755
894.670	0.0154798
894.748	0.0156330
894.826	0.0157066
894.905	0.0158302
894.983	0.0158474
895.061	0.0157417
895.139	0.0157950
895.217	0.0157710
895.295	0.0157624
895.373	0.0157609
895.451	0.0156264
895.530	0.0157541
895.608	0.0156876
895.686	0.0154903
895.764	0.0154395
895.842	0.0155433
895.920	0.0154536
895.998	0.0153234
896.076	0.0152853
896.155	0.0152247
896.233	0.0152499
896.311	0.0151648
896.389	0.0151017
896.467	0.0152387
896.545	0.0152597
896.623	0.0152634
896.701	0.0152708
896.780	0.0152590
896.858	0.0153987
896.936	0.0154243
897.014	0.0154973
897.092	0.0156727
897.170	0.0156232
897.248	0.0157538
897.326	0.0157591
897.405	0.0157321
897.483	0.0158018
897.561	0.0159167
897.639	0.0158092
897.717	0.0159255
897.795	0.0158146
897.873	0.0157558
897.951	0.0158509
898.030	0.0157066
898.108	0.0155747
898.186	0.0153649
898.264	0.0155143
898.342	0.0153638
898.420	0.0152370
898.498	0.0151665
898.576	0.0150931
898.655	0.0151808
898.733	0.0150167
898.811	0.0150460
898.889	0.0149231
898.967	0.0150527
899.045	0.0149049
899.123	0.0150534
899.201	0.0150357
899.280	0.0150377
899.358	0.0150722
899.436	0.0152219
899.514	0.0150468
899.592	0.0151469
899.670	0.0152712
899.748	0.0153196
899.826	0.0152951
899.905	0.0154761
899.983	0.0155859
900.061	0.0154813
900.139	0.0155431
900.217	0.0157201
900.295	0.0157458
900.373	0.0157895
900.451	0.0158345
900.530	0.0157867
900.608	0.0158533
900.686	0.0159070
900.764	0.0158778
900.842	0.0159843
900.920	0.0158604
900.998	0.0158740
901.076	0.0158001
901.155	0.0157575
901.233	0.0156163
901.311	0.0155967
901.389	0.0157113
901.467	0.0154774
901.545	0.0154002
901.623	0.0152834
901.701	0.0151962
901.780	0.0151964
901.858	0.0151414
901.936	0.0150265
902.014	0.0149744
902.092	0.0150356
902.170	0.0149919
902.248	0.0150213
902.326	0.0149647
902.405	0.0150175
902.483	0.0151702
902.561	0.0150733
902.639	0.0152053
902.717	0.0152551
902.795	0.0154185
902.873	0.0152749
902.951	0.0154449
903.030	0.0154179
903.108	0.0154443
903.186	0.0155670
903.264	0.0155402
903.342	0.0155618
903.420	0.0156508
903.498	0.0155250
903.576	0.0155522
903.655	0.0155165
903.733	0.0155370
903.811	0.0155031
903.889	0.0155044
903.967	0.0154935
904.045	0.0154884
904.123	0.0155660
904.201	0.0154242
904.280	0.0154073
904.358	0.0155537
904.436	0.0154578
904.514	0.0153825
904.592	0.0154865
904.670	0.0154655
904.748	0.0154491
904.826	0.0154440
904.905	0.0153765
904.983	0.0153661
905.061	0.0153638
905.139	0.0154338
905.217	0.0154308
905.295	0.0155161
905.373	0.0156337
905.451	0.0155343
905.530	0.0156002
905.608	0.0154186
905.686	0.0155896
905.764	0.0154144
905.842	0.0155803
905.920	0.0156370
905.998	0.0155425
906.076	0.0155247
906.155	0.0153886
906.233	0.0153751
906.311	0.0155196
906.389	0.0152372
906.467	0.0153571
906.545	0.0152376
906.623	0.0152629
906.701	0.0152222
906.780	0.0151240
906.858	0.0151233
906.936	0.0151465
907.014	0.0150874
907.092	0.0151262
907.170	0.0150651
907.248	0.0151311
907.326	0.0152090
907.405	0.0151997
907.483	0.0152834
907.561	0.0152003
907.639	0.0151171
907.717	0.0151880
907.795	0.0152985
907.873	0.0152998
907.951	0.0154143
908.030	0.0154274
908.108	0.0153455
908.186	0.0154858
908.264	0.0155852
908.342	0.0155698
908.420	0.0155410
908.498	0.0157782
908.576	0.0158328
908.655	0.0157997
908.733	0.0158596
908.811	0.0159544
908.889	0.0159206
908.967	0.0157281
909.045	0.0157668
909.123	0.0158163
909.201	0.0157951
909.280	0.0156416
909.358	0.0156992
909.436	0.0156680
909.514	0.0155723
909.592	0.0154607
909.670	0.0155234
909.748	0.0155961
909.826	0.0152471
909.905	0.0152808
909.983	0.0153566
910.061	0.0153541
910.139	0.0153889
910.217	0.0152708
910.295	0.0151727
910.373	0.0152840
910.451	0.0153073
910.530	0.0153609
910.608	0.0153663
910.686	0.0153038
910.764	0.0154602
910.842	0.0154546
910.920	0.0152972
910.998	0.0154115
911.076	0.0153520
911.155	0.0153254
911.233	0.0152602
911.311	0.0153279
911.389	0.0152618
911.467	0.0152735
911.545	0.0153658
911.623	0.0153264
911.701	0.0153015
911.780	0.0152205
911.858	0.0151988
911.936	0.0152504
912.014	0.0151262
912.092	0.0151732
912.170	0.0151044
912.248	0.0152579
912.326	0.0152242
912.405	0.0151878
912.483	0.0151417
912.561	0.0153036
912.639	0.0154082
912.717	0.0154173
912.795	0.0154736
912.873	0.0156272
912.951	0.0156013
913.030	0.0154843
913.108	0.0155933
913.186	0.0155637
913.264	0.0156390
913.342	0.0156787
913.420	0.0155608
913.498	0.0156731
913.576	0.0158228
913.655	0.0157731
913.733	0.0156628
913.811	0.0157076
913.889	0.0155796
913.967	0.0155215
914.045	0.0156091
914.123	0.0156458
914.201	0.0156541
914.280	0.0154546
914.358	0.0156054
914.436	0.0154368
914.514	0.0154723
914.592	0.0154362
914.670	0.0154500
914.748	0.0155161
914.826	0.0155317
914.905	0.0155447
914.983	0.0152754
915.061	0.0153205
915.139	0.0152386
915.217	0.0153241
915.295	0.0153550
915.373	0.0151653
915.451	0.0152666
915.530	0.0153274
915.608	0.0153506
915.686	0.0152894
915.764	0.0153271
915.842	0.0153396
915.920	0.0153548
915.998	0.0153117
916.076	0.0152199
916.155	0.0153221
916.233	0.0154469
916.311	0.0152337
916.389	0.0153484
916.467	0.0153257
916.545	0.0153419
916.623	0.0153567
916.701	0.0153539
916.780	0.0153102
916.858	0.0152970
916.936	0.0154322
917.014	0.0155194
917.092	0.0155173
917.170	0.0155159
917.248	0.0153517
917.326	0.0153494
917.405	0.0154633
917.483	0.0154935
917.561	0.0154381
917.639	0.0154031
917.717	0.0154092
917.795	0.0154245
917.873	0.0153794
917.951	0.0152681
918.030	0.0153586
918.108	0.0153528
918.186	0.0153784
918.264	0.0153647
918.342	0.0153324
918.420	0.0152532
918.498	0.0153384
918.576	0.0153767
918.655	0.0153689
918.733	0.0152898
918.811	0.0155981
918.889	0.0156487
918.967	0.0155018
919.045	0.0155096
919.123	0.0155854
919.201	0.0156423
919.280	0.0156032
919.358	0.0155215
919.436	0.0155672
919.514	0.0156682
919.592	0.0155492
919.670	0.0156010
919.748	0.0158007
919.826	0.0155534
919.905	0.0154803
919.983	0.0154483
920.061	0.0153558
920.139	0.0153685
920.217	0.0153544
920.295	0.0154925
920.373	0.0153264
920.451	0.0153750
920.530	0.0154272
920.608	0.0152998
920.686	0.0152358
920.764	0.0153142
920.842	0.0153220
920.920	0.0153532
920.998	0.0154362
921.076	0.0153781
921.155	0.0153796
921.233	0.0155154
921.311	0.0153491
921.389	0.0153304
921.467	0.0154214
921.545	0.0153845
921.623	0.0153871
921.701	0.0154575
921.780	0.0153571
921.858	0.0153393
921.936	0.0153916
922.014	0.0153957
922.092	0.0152959
922.170	0.0152148
922.248	0.0152296
922.326	0.0151791
922.405	0.0151610
922.483	0.0152197
922.561	0.0152586
922.639	0.0151831
922.717	0.0151399
922.795	0.0150006
922.873	0.0151023
922.951	0.0152123
923.030	0.0150898
923.108	0.0151111
923.186	0.0152840
923.264	0.0151898
923.342	0.0151580
923.420	0.0150729
923.498	0.0152822
923.576	0.0154215
923.655	0.0154002
923.733	0.0153683
923.811	0.0154766
923.889	0.0155244
923.967	0.0153914
924.045	0.0152025
924.123	0.0155113
924.201	0.0156120
924.280	0.0155623
924.358	0.0154956
924.436	0.0154131
924.514	0.0154556
924.592	0.0155910
924.670	0.0153902
924.748	0.0153456
924.826	0.0153164
924.905	0.0153197
924.983	0.0154816
925.061	0.0153270
925.139	0.0153400
925.217	0.0152751
925.295	0.0151917
925.373	0.0153735
925.451	0.0153732
925.530	0.0155856
925.608	0.0153598
925.686	0.0154276
925.764	0.0154681
925.842	0.0153263
925.920	0.0153941
925.998	0.0154916
926.076	0.0154449
926.155	0.0155080
926.233	0.0155669
926.311	0.0154948
926.389	0.0154778
926.467	0.0156226
926.545	0.0154913
926.623	0.0156337
926.701	0.0155156
926.780	0.0154481
926.858	0.0155142
926.936	0.0156090
927.014	0.0154977
927.092	0.0154839
927.170	0.0156292
927.248	0.0155931
927.326	0.0156422
927.405	0.0153814
927.483	0.0153935
927.561	0.0155212
927.639	0.0154581
927.717	0.0154750
927.795	0.0153571
927.873	0.0153797
927.951	0.0152296
928.030	0.0152622
928.108	0.0152052
928.186	0.0151621
928.264	0.0151859
928.342	0.0152126
928.420	0.0152966
928.498	0.0152407
928.576	0.0152106
928.655	0.0152538
928.733	0.0151994
928.811	0.0153223
928.889	0.0154981
928.967	0.0153486
929.045	0.0154794
929.123	0.0154064
929.201	0.0153150
929.280	0.0154915
929.358	0.0154182
929.436	0.0154796
929.514	0.0155798
929.592	0.0154761
929.670	0.0156091
929.748	0.0157038
929.826	0.0156152
929.905	0.0155076
929.983	0.0155513
930.061	0.0154321
930.139	0.0153909
930.217	0.0154908
930.295	0.0154787
930.373	0.0155110
930.451	0.0153783
930.530	0.0153429
930.608	0.0153691
930.686	0.0154117
930.764	0.0153969
930.842	0.0153466
930.920	0.0153436
930.998	0.0153581
931.076	0.0154012
931.155	0.0154127
931.233	0.0154094
931.311	0.0154441
931.389	0.0154253
931.467	0.0154082
931.545	0.0156096
931.623	0.0156411
931.701	0.0155495
931.780	0.0156660
931.858	0.0157405
931.936	0.0158412
932.014	0.0158076
932.092	0.0158511
932.170	0.0158281
932.248	0.0158041
932.326	0.0156983
932.405	0.0157880
932.483	0.0157854
932.561	0.0158078
932.639	0.0156820
932.717	0.0156616
932.795	0.0156421
932.873	0.0156786
932.951	0.0156197
933.030	0.0155003
933.108	0.0154831
933.186	0.0153398
933.264	0.0153338
933.342	0.0152901
933.420	0.0154264
933.498	0.0153938
933.576	0.0154682
933.655	0.0153360
933.733	0.0152706
933.811	0.0152257
933.889	0.0152402
933.967	0.0152229
934.045	0.0154601
934.123	0.0152917
934.201	0.0153919
934.280	0.0155328
934.358	0.0155234
934.436	0.0155070
934.514	0.0154964
934.592	0.0155485
934.670	0.0156466
934.748	0.0155999
934.826	0.0156072
934.905	0.0156126
934.983	0.0155001
935.061	0.0154088
935.139	0.0154299
935.217	0.0152470
935.295	0.0153643
935.373	0.0153323
935.451	0.0152504
935.530	0.0152910
935.608	0.0151616
935.686	0.0152186
935.764	0.0153413
935.842	0.0152654
935.920	0.0151627
935.998	0.0150906
936.076	0.0151791
936.155	0.0151015
936.233	0.0151962
936.311	0.0152375
936.389	0.0152306
936.467	0.0153541
936.545	0.0153880
936.623	0.0154878
936.701	0.0155169
936.780	0.0155720
936.858	0.0155640
936.936	0.0156123
937.014	0.0158784
937.092	0.0158590
937.170	0.0157858
937.248	0.0159525
937.326	0.0159138
937.405	0.0159438
937.483	0.0159882
937.561	0.0159192
937.639	0.0158601
937.717	0.0157883
937.795	0.0158035
937.873	0.0156611
937.951	0.0156683
938.030	0.0155447
938.108	0.0154355
938.186	0.0154802
938.264	0.0155246
938.342	0.0154549
938.420	0.0154556
938.498	0.0154310
938.576	0.0154690
938.655	0.0154194
938.733	0.0154140
938.811	0.0152624
938.889	0.0153816
938.967	0.0153176
939.045	0.0152173
939.123	0.0153934
939.201	0.0152304
939.280	0.0151424
939.358	0.0152760
939.436	0.0152606
939.514	0.0151249
939.592	0.0151768
939.670	0.0152856
939.748	0.0153836
939.826	0.0152455
939.905	0.0153246
939.983	0.0151788
940.061	0.0153436
940.139	0.0152661
940.217	0.0152383
940.295	0.0152679
940.373	0.0153867
940.451	0.0152313
940.530	0.0154367
940.608	0.0154210
940.686	0.0154127
940.764	0.0153180
940.842	0.0153597
940.920	0.0155775
940.998	0.0154097
941.076	0.0154945
941.155	0.0153685
941.233	0.0154359
941.311	0.0155042
941.389	0.0153188
941.467	0.0153550
941.545	0.0153996
941.623	0.0153174
941.701	0.0152415
941.780	0.0153546
941.858	0.0151298
941.936	0.0151365
942.014	0.0153447
942.092	0.0151723
942.170	0.0152090
942.248	0.0152809
942.326	0.0151891
942.405	0.0152484
942.483	0.0153796
942.561	0.0152364
942.639	0.0155208
942.717	0.0154291
942.795	0.0153577
942.873	0.0154045
942.951	0.0156461
943.030	0.0155644
943.108	0.0156412
943.186	0.0156049
943.264	0.0155463
943.342	0.0156718
943.420	0.0155075
943.498	0.0155989
943.576	0.0156316
943.655	0.0156041
943.733	0.0157015
943.811	0.0156373
943.889	0.0156037
943.967	0.0154507
944.045	0.0154541
944.123	0.0153381
944.201	0.0154530
944.280	0.0153927
944.358	0.0153278
944.436	0.0153212
944.514	0.0153760
944.592	0.0151840
944.670	0.0152851
944.748	0.0151579
944.826	0.0152207
944.905	0.0152753
944.983	0.0151656
945.061	0.0152557
945.139	0.0153452
945.217	0.0152805
945.295	0.0152041
945.373	0.0152703
945.451	0.0153522
945.530	0.0152165
945.608	0.0153413
945.686	0.0153329
945.764	0.0152123
945.842	0.0151506
945.920	0.0152576
945.998	0.0153410
946.076	0.0153254
946.155	0.0152544
946.233	0.0151802
946.311	0.0152692
946.389	0.0152792
946.467	0.0151987
946.545	0.0152737
946.623	0.0151562
946.701	0.0151980
946.780	0.0152637
946.858	0.0153774
946.936	0.0153420
947.014	0.0152083
947.092	0.0152917
947.170	0.0153245
947.248	0.0153543
947.326	0.0153740
947.405	0.0154192
947.483	0.0154291
947.561	0.0155042
947.639	0.0155510
947.717	0.0154704
947.795	0.0155083
947.873	0.0156840
947.951	0.0156787
948.030	0.0156965
948.108	0.0157843
948.186	0.0158514
948.264	0.0157160
948.342	0.0157245
948.420	0.0156718
948.498	0.0156892
948.576	0.0157799
948.655	0.0158170
948.733	0.0157412
948.811	0.0158282
948.889	0.0157467
948.967	0.0158801
949.045	0.0158499
949.123	0.0156515
949.201	0.0155887
949.280	0.0154685
949.358	0.0154413
949.436	0.0154209
949.514	0.0154686
949.592	0.0153820
949.670	0.0152291
949.748	0.0152457
949.826	0.0152062
949.905	0.0151965
949.983	0.0152544
950.061	0.0150816
950.139	0.0152161
950.217	0.0153268
950.295	0.0152566
950.373	0.0152695
950.451	0.0152973
950.530	0.0154948
950.608	0.0153236
950.686	0.0154013
950.764	0.0155402
950.842	0.0155268
950.920	0.0153058
950.998	0.0155430
951.076	0.0155653
951.155	0.0155597
951.233	0.0154594
951.311	0.0154878
951.389	0.0154165
951.467	0.0154505
951.545	0.0154207
951.623	0.0153423
951.701	0.0153090
951.780	0.0153725
951.858	0.0152452
951.936	0.0153040
952.014	0.0152648
952.092	0.0153838
952.170	0.0152405
952.248	0.0152971
952.326	0.0153524
952.405	0.0151954
952.483	0.0151686
952.561	0.0154163
952.639	0.0153620
952.717	0.0153732
952.795	0.0153352
952.873	0.0154654
952.951	0.0155914
953.030	0.0156071
953.108	0.0155165
953.186	0.0156043
953.264	0.0157137
953.342	0.0157602
953.420	0.0157252
953.498	0.0157439
953.576	0.0156261
953.655	0.0157967
953.733	0.0159063
953.811	0.0156181
953.889	0.0158445
953.967	0.0157339
954.045	0.0158315
954.123	0.0157708
954.201	0.0158315
954.280	0.0157858
954.358	0.0156503
954.436	0.0156541
954.514	0.0156617
954.592	0.0154097
954.670	0.0154375
954.748	0.0156237
954.826	0.0155502
954.905	0.0154719
954.983	0.0155042
955.061	0.0153976
955.139	0.0153744
955.217	0.0153946
955.295	0.0153449
955.373	0.0152322
955.451	0.0154110
955.530	0.0153758
955.608	0.0152878
955.686	0.0154082
955.764	0.0153515
955.842	0.0152851
955.920	0.0152426
955.998	0.0153332
956.076	0.0154497
956.155	0.0154031
956.233	0.0155130
956.311	0.0152231
956.389	0.0152800
956.467	0.0156044
956.545	0.0156062
956.623	0.0153825
956.701	0.0155030
956.780	0.0153759
956.858	0.0154604
956.936	0.0154028
957.014	0.0153725
957.092	0.0154156
957.170	0.0153427
957.248	0.0152042
957.326	0.0152331
957.405	0.0152927
957.483	0.0154456
957.561	0.0153891
957.639	0.0154550
957.717	0.0153345
957.795	0.0153134
957.873	0.0153542
957.951	0.0154120
958.030	0.0153812
958.108	0.0154058
958.186	0.0153816
958.264	0.0154799
958.342	0.0156087
958.420	0.0155344
958.498	0.0153854
958.576	0.0155318
958.655	0.0156390
958.733	0.0156285
958.811	0.0154572
958.889	0.0156033
958.967	0.0156541
959.045	0.0155466
959.123	0.0155853
959.201	0.0156050
959.280	0.0157440
959.358	0.0155229
959.436	0.0155026
959.514	0.0154882
959.592	0.0154997
959.670	0.0155788
959.748	0.0155932
959.826	0.0153955
959.905	0.0154429
