05/17/2022	16:46:33	Ver.	4.1	UNKNOWN
Optical Delay	639.982744	Delta X		0.078125	Sweeps	1	Scan Rate	0/0
Coordinates	Axis 1	NaN	Axis 2	NaN	Axis 3	NaN	Axis 4	NaN	Axis 5	NaN	Axis 6	0.000000
TX Power	0.000000	RX Power	0.000000

639.983	0.0152810
640.061	0.0152232
640.139	0.0152312
640.217	0.0153236
640.295	0.0153199
640.373	0.0151780
640.451	0.0151884
640.530	0.0152813
640.608	0.0151822
640.686	0.0152988
640.764	0.0151336
640.842	0.0152787
640.920	0.0152164
640.998	0.0152684
641.076	0.0152721
641.155	0.0153530
641.233	0.0151859
641.311	0.0152594
641.389	0.0153203
641.467	0.0153452
641.545	0.0153559
641.623	0.0151878
641.701	0.0152191
641.780	0.0152859
641.858	0.0153214
641.936	0.0151780
642.014	0.0152303
642.092	0.0153582
642.170	0.0153239
642.248	0.0152558
642.326	0.0151991
642.405	0.0152690
642.483	0.0153188
642.561	0.0151465
642.639	0.0151462
642.717	0.0151259
642.795	0.0152564
642.873	0.0152734
642.951	0.0153490
643.030	0.0152349
643.108	0.0152306
643.186	0.0153107
643.264	0.0152602
643.342	0.0151301
643.420	0.0152038
643.498	0.0151974
643.576	0.0153027
643.655	0.0152173
643.733	0.0151901
643.811	0.0152282
643.889	0.0151921
643.967	0.0153585
644.045	0.0152266
644.123	0.0152936
644.201	0.0152679
644.280	0.0153339
644.358	0.0153490
644.436	0.0151791
644.514	0.0153165
644.592	0.0151363
644.670	0.0152979
644.748	0.0152294
644.826	0.0150996
644.905	0.0152728
644.983	0.0152540
645.061	0.0151559
645.139	0.0153076
645.217	0.0153376
645.295	0.0152977
645.373	0.0150411
645.451	0.0152660
645.530	0.0152452
645.608	0.0152956
645.686	0.0153740
645.764	0.0151105
645.842	0.0150872
645.920	0.0152473
645.998	0.0151080
646.076	0.0151283
646.155	0.0152282
646.233	0.0151584
646.311	0.0152048
646.389	0.0151767
646.467	0.0153363
646.545	0.0152511
646.623	0.0152292
646.701	0.0152753
646.780	0.0151955
646.858	0.0151846
646.936	0.0153425
647.014	0.0153163
647.092	0.0151027
647.170	0.0153125
647.248	0.0153853
647.326	0.0152471
647.405	0.0152181
647.483	0.0152866
647.561	0.0151457
647.639	0.0153501
647.717	0.0152897
647.795	0.0151167
647.873	0.0152075
647.951	0.0152817
648.030	0.0151874
648.108	0.0153035
648.186	0.0153292
648.264	0.0151269
648.342	0.0151307
648.420	0.0151880
648.498	0.0152853
648.576	0.0151595
648.655	0.0151535
648.733	0.0152326
648.811	0.0152426
648.889	0.0154040
648.967	0.0152663
649.045	0.0153028
649.123	0.0153191
649.201	0.0151180
649.280	0.0153632
649.358	0.0152346
649.436	0.0152152
649.514	0.0152861
649.592	0.0151964
649.670	0.0152154
649.748	0.0151920
649.826	0.0153618
649.905	0.0151546
649.983	0.0151673
650.061	0.0152037
650.139	0.0153796
650.217	0.0152552
650.295	0.0153199
650.373	0.0152356
650.451	0.0152802
650.530	0.0153501
650.608	0.0154688
650.686	0.0152460
650.764	0.0152453
650.842	0.0153555
650.920	0.0152469
650.998	0.0152785
651.076	0.0153196
651.155	0.0151640
651.233	0.0151720
651.311	0.0153207
651.389	0.0153172
651.467	0.0152683
651.545	0.0152708
651.623	0.0151923
651.701	0.0151985
651.780	0.0152220
651.858	0.0152708
651.936	0.0152037
652.014	0.0152468
652.092	0.0152037
652.170	0.0151243
652.248	0.0151833
652.326	0.0152202
652.405	0.0152290
652.483	0.0152897
652.561	0.0151764
652.639	0.0152345
652.717	0.0152497
652.795	0.0152966
652.873	0.0152776
652.951	0.0152771
653.030	0.0153339
653.108	0.0152205
653.186	0.0152515
653.264	0.0152956
653.342	0.0151916
653.420	0.0152739
653.498	0.0151859
653.576	0.0152409
653.655	0.0152372
653.733	0.0151778
653.811	0.0152709
653.889	0.0152201
653.967	0.0153167
654.045	0.0152704
654.123	0.0153667
654.201	0.0152355
654.280	0.0152372
654.358	0.0152089
654.436	0.0153498
654.514	0.0154057
654.592	0.0153546
654.670	0.0152977
654.748	0.0152857
654.826	0.0152804
654.905	0.0153190
654.983	0.0152982
655.061	0.0152280
655.139	0.0151005
655.217	0.0152136
655.295	0.0152890
655.373	0.0153255
655.451	0.0152859
655.530	0.0153181
655.608	0.0152669
655.686	0.0151967
655.764	0.0153234
655.842	0.0150904
655.920	0.0152834
655.998	0.0153737
656.076	0.0151981
656.155	0.0152619
656.233	0.0154276
656.311	0.0153294
656.389	0.0153333
656.467	0.0150583
656.545	0.0151485
656.623	0.0153030
656.701	0.0152603
656.780	0.0152195
656.858	0.0153658
656.936	0.0152935
657.014	0.0152599
657.092	0.0153687
657.170	0.0151877
657.248	0.0152091
657.326	0.0151186
657.405	0.0153581
657.483	0.0152348
657.561	0.0152708
657.639	0.0152780
657.717	0.0152538
657.795	0.0152270
657.873	0.0152184
657.951	0.0152668
658.030	0.0152660
658.108	0.0151992
658.186	0.0152981
658.264	0.0152665
658.342	0.0151997
658.420	0.0152022
658.498	0.0153349
658.576	0.0152466
658.655	0.0152085
658.733	0.0153222
658.811	0.0152460
658.889	0.0153575
658.967	0.0151967
659.045	0.0151215
659.123	0.0151950
659.201	0.0152892
659.280	0.0154081
659.358	0.0152106
659.436	0.0153133
659.514	0.0152122
659.592	0.0153251
659.670	0.0152512
659.748	0.0151256
659.826	0.0152074
659.905	0.0153618
659.983	0.0151980
660.061	0.0153878
660.139	0.0153432
660.217	0.0151910
660.295	0.0152302
660.373	0.0152917
660.451	0.0152898
660.530	0.0152221
660.608	0.0152666
660.686	0.0153101
660.764	0.0153264
660.842	0.0152158
660.920	0.0151654
660.998	0.0153660
661.076	0.0151820
661.155	0.0153451
661.233	0.0152184
661.311	0.0154462
661.389	0.0153299
661.467	0.0151774
661.545	0.0153352
661.623	0.0151891
661.701	0.0153358
661.780	0.0153459
661.858	0.0150850
661.936	0.0152908
662.014	0.0153532
662.092	0.0151902
662.170	0.0154223
662.248	0.0152639
662.326	0.0152983
662.405	0.0152149
662.483	0.0152106
662.561	0.0154161
662.639	0.0153442
662.717	0.0152605
662.795	0.0153053
662.873	0.0153662
662.951	0.0152332
663.030	0.0153760
663.108	0.0153688
663.186	0.0150612
663.264	0.0152629
663.342	0.0152732
663.420	0.0151942
663.498	0.0151539
663.576	0.0153654
663.655	0.0151958
663.733	0.0151220
663.811	0.0151891
663.889	0.0153107
663.967	0.0152692
664.045	0.0152050
664.123	0.0154394
664.201	0.0151797
664.280	0.0150851
664.358	0.0151763
664.436	0.0151942
664.514	0.0153339
664.592	0.0153264
664.670	0.0152724
664.748	0.0152092
664.826	0.0152022
664.905	0.0152049
664.983	0.0152496
665.061	0.0152240
665.139	0.0150743
665.217	0.0151086
665.295	0.0152244
665.373	0.0152768
665.451	0.0151630
665.530	0.0152184
665.608	0.0152576
665.686	0.0151524
665.764	0.0152370
665.842	0.0152391
665.920	0.0151894
665.998	0.0151854
666.076	0.0152930
666.155	0.0151287
666.233	0.0152934
666.311	0.0153750
666.389	0.0153156
666.467	0.0152801
666.545	0.0151988
666.623	0.0151805
666.701	0.0153085
666.780	0.0152483
666.858	0.0151356
666.936	0.0153276
667.014	0.0152402
667.092	0.0152650
667.170	0.0152460
667.248	0.0152980
667.326	0.0152283
667.405	0.0152792
667.483	0.0152586
667.561	0.0151612
667.639	0.0151405
667.717	0.0153181
667.795	0.0152612
667.873	0.0151825
667.951	0.0151923
668.030	0.0151862
668.108	0.0151402
668.186	0.0152955
668.264	0.0152213
668.342	0.0153908
668.420	0.0153107
668.498	0.0151540
668.576	0.0151970
668.655	0.0152601
668.733	0.0152477
668.811	0.0152204
668.889	0.0153360
668.967	0.0153289
669.045	0.0153922
669.123	0.0153125
669.201	0.0152423
669.280	0.0152034
669.358	0.0151929
669.436	0.0152769
669.514	0.0153436
669.592	0.0152899
669.670	0.0152316
669.748	0.0152572
669.826	0.0151758
669.905	0.0151262
669.983	0.0151765
670.061	0.0151490
670.139	0.0151875
670.217	0.0152814
670.295	0.0153224
670.373	0.0152343
670.451	0.0151574
670.530	0.0152322
670.608	0.0153283
670.686	0.0153148
670.764	0.0152609
670.842	0.0153062
670.920	0.0152620
670.998	0.0151707
671.076	0.0153098
671.155	0.0153137
671.233	0.0150932
671.311	0.0153102
671.389	0.0153271
671.467	0.0153899
671.545	0.0154108
671.623	0.0153398
671.701	0.0153766
671.780	0.0153040
671.858	0.0154036
671.936	0.0154494
672.014	0.0152238
672.092	0.0152496
672.170	0.0152482
672.248	0.0152139
672.326	0.0151499
672.405	0.0151877
672.483	0.0151077
672.561	0.0151805
672.639	0.0151727
672.717	0.0150968
672.795	0.0152184
672.873	0.0152226
672.951	0.0152528
673.030	0.0152517
673.108	0.0152959
673.186	0.0154646
673.264	0.0152450
673.342	0.0154690
673.420	0.0155383
673.498	0.0155168
673.576	0.0153949
673.655	0.0154806
673.733	0.0154710
673.811	0.0155494
673.889	0.0156937
673.967	0.0155650
674.045	0.0155978
674.123	0.0154137
674.201	0.0154064
674.280	0.0155241
674.358	0.0154341
674.436	0.0151997
674.514	0.0153107
674.592	0.0150130
674.670	0.0150837
674.748	0.0150546
674.826	0.0150693
674.905	0.0150529
674.983	0.0147824
675.061	0.0148412
675.139	0.0148260
675.217	0.0149050
675.295	0.0148286
675.373	0.0150310
675.451	0.0149420
675.530	0.0151357
675.608	0.0151943
675.686	0.0152772
675.764	0.0152720
675.842	0.0154887
675.920	0.0155583
675.998	0.0155841
676.076	0.0156004
676.155	0.0156055
676.233	0.0155841
676.311	0.0156457
676.389	0.0155798
676.467	0.0155431
676.545	0.0154491
676.623	0.0153813
676.701	0.0153499
676.780	0.0152763
676.858	0.0151660
676.936	0.0151299
677.014	0.0150805
677.092	0.0149878
677.170	0.0148565
677.248	0.0147351
677.326	0.0148563
677.405	0.0148912
677.483	0.0147903
677.561	0.0148637
677.639	0.0150200
677.717	0.0150262
677.795	0.0151768
677.873	0.0152048
677.951	0.0153101
678.030	0.0154817
678.108	0.0155355
678.186	0.0156395
678.264	0.0155685
678.342	0.0157182
678.420	0.0157303
678.498	0.0157362
678.576	0.0157601
678.655	0.0155272
678.733	0.0154295
678.811	0.0155358
678.889	0.0155878
678.967	0.0154370
679.045	0.0152773
679.123	0.0153067
679.201	0.0151703
679.280	0.0152179
679.358	0.0153086
679.436	0.0150468
679.514	0.0151254
679.592	0.0151104
679.670	0.0152242
679.748	0.0151418
679.826	0.0151619
679.905	0.0151899
679.983	0.0151779
680.061	0.0150118
680.139	0.0151089
680.217	0.0151953
680.295	0.0153809
680.373	0.0153583
680.451	0.0153784
680.530	0.0154800
680.608	0.0153040
680.686	0.0153799
680.764	0.0152839
680.842	0.0154087
680.920	0.0154089
680.998	0.0153410
681.076	0.0153159
681.155	0.0152936
681.233	0.0153204
681.311	0.0152843
681.389	0.0151362
681.467	0.0152444
681.545	0.0152430
681.623	0.0152193
681.701	0.0152025
681.780	0.0152866
681.858	0.0153975
681.936	0.0153825
682.014	0.0154858
682.092	0.0152571
682.170	0.0153281
682.248	0.0153119
682.326	0.0151793
682.405	0.0151721
682.483	0.0151469
682.561	0.0151045
682.639	0.0148151
682.717	0.0148924
682.795	0.0150147
682.873	0.0149917
682.951	0.0148712
683.030	0.0150065
683.108	0.0151833
683.186	0.0150766
683.264	0.0154250
683.342	0.0153531
683.420	0.0155506
683.498	0.0155777
683.576	0.0155338
683.655	0.0156968
683.733	0.0156932
683.811	0.0156137
683.889	0.0156961
683.967	0.0157967
684.045	0.0158018
684.123	0.0158241
684.201	0.0157767
684.280	0.0159009
684.358	0.0158892
684.436	0.0159261
684.514	0.0156063
684.592	0.0155270
684.670	0.0152012
684.748	0.0151031
684.826	0.0148751
684.905	0.0146846
684.983	0.0145342
685.061	0.0145037
685.139	0.0145589
685.217	0.0145608
685.295	0.0142688
685.373	0.0145190
685.451	0.0143806
685.530	0.0144298
685.608	0.0143854
685.686	0.0144596
685.764	0.0147205
685.842	0.0147640
685.920	0.0147610
685.998	0.0147926
686.076	0.0149590
686.155	0.0150237
686.233	0.0152824
686.311	0.0151749
686.389	0.0153611
686.467	0.0154576
686.545	0.0155560
686.623	0.0154894
686.701	0.0156558
686.780	0.0157343
686.858	0.0155269
686.936	0.0156287
687.014	0.0156660
687.092	0.0157069
687.170	0.0156058
687.248	0.0156953
687.326	0.0156155
687.405	0.0155283
687.483	0.0156915
687.561	0.0155202
687.639	0.0154652
687.717	0.0154414
687.795	0.0153893
687.873	0.0153538
687.951	0.0152412
688.030	0.0153458
688.108	0.0152827
688.186	0.0151063
688.264	0.0152051
688.342	0.0151614
688.420	0.0152234
688.498	0.0152184
688.576	0.0152985
688.655	0.0153199
688.733	0.0153033
688.811	0.0152919
688.889	0.0152439
688.967	0.0153800
689.045	0.0153252
689.123	0.0153710
689.201	0.0154642
689.280	0.0154649
689.358	0.0155248
689.436	0.0154401
689.514	0.0154423
689.592	0.0155823
689.670	0.0155024
689.748	0.0153636
689.826	0.0155096
689.905	0.0154630
689.983	0.0154298
690.061	0.0152539
690.139	0.0152198
690.217	0.0151207
690.295	0.0149130
690.373	0.0149568
690.451	0.0146237
690.530	0.0145545
690.608	0.0144699
690.686	0.0143845
690.764	0.0142693
690.842	0.0141964
690.920	0.0140622
690.998	0.0139317
691.076	0.0139981
691.155	0.0142442
691.233	0.0142935
691.311	0.0144425
691.389	0.0145158
691.467	0.0147350
691.545	0.0148051
691.623	0.0149654
691.701	0.0153458
691.780	0.0157811
691.858	0.0159984
691.936	0.0162298
692.014	0.0166694
692.092	0.0169716
692.170	0.0172942
692.248	0.0173930
692.326	0.0177028
692.405	0.0177576
692.483	0.0177989
692.561	0.0180352
692.639	0.0179769
692.717	0.0177161
692.795	0.0174828
692.873	0.0172743
692.951	0.0171210
693.030	0.0167779
693.108	0.0165666
693.186	0.0164125
693.264	0.0160860
693.342	0.0158500
693.420	0.0157916
693.498	0.0156157
693.576	0.0151386
693.655	0.0149321
693.733	0.0148142
693.811	0.0144436
693.889	0.0143349
693.967	0.0140437
694.045	0.0138230
694.123	0.0135633
694.201	0.0134768
694.280	0.0132700
694.358	0.0132323
694.436	0.0132271
694.514	0.0132893
694.592	0.0130777
694.670	0.0131578
694.748	0.0130891
694.826	0.0132098
694.905	0.0132034
694.983	0.0132979
695.061	0.0133675
695.139	0.0135184
695.217	0.0135737
695.295	0.0137621
695.373	0.0138681
695.451	0.0140690
695.530	0.0141293
695.608	0.0140732
695.686	0.0142586
695.764	0.0143377
695.842	0.0144395
695.920	0.0145553
695.998	0.0146745
696.076	0.0148666
696.155	0.0148880
696.233	0.0149623
696.311	0.0151916
696.389	0.0152383
696.467	0.0154224
696.545	0.0157246
696.623	0.0158970
696.701	0.0161853
696.780	0.0164663
696.858	0.0168652
696.936	0.0172139
697.014	0.0175740
697.092	0.0179858
697.170	0.0185542
697.248	0.0188599
697.326	0.0192476
697.405	0.0195275
697.483	0.0199361
697.561	0.0202338
697.639	0.0201987
697.717	0.0203779
697.795	0.0200909
697.873	0.0198301
697.951	0.0194956
698.030	0.0192369
698.108	0.0185722
698.186	0.0177679
698.264	0.0171568
698.342	0.0164783
698.420	0.0155327
698.498	0.0146548
698.576	0.0137674
698.655	0.0130935
698.733	0.0122388
698.811	0.0117178
698.889	0.0110298
698.967	0.0105848
699.045	0.0103227
699.123	0.0102016
699.201	0.0103331
699.280	0.0104197
699.358	0.0107415
699.436	0.0111634
699.514	0.0116331
699.592	0.0121613
699.670	0.0128328
699.748	0.0133957
699.826	0.0140230
699.905	0.0146557
699.983	0.0151132
700.061	0.0153725
700.139	0.0155393
700.217	0.0156731
700.295	0.0156690
700.373	0.0157459
700.451	0.0156902
700.530	0.0154524
700.608	0.0152102
700.686	0.0151380
700.764	0.0149416
700.842	0.0147984
700.920	0.0148173
700.998	0.0147568
701.076	0.0146069
701.155	0.0145415
701.233	0.0143999
701.311	0.0143409
701.389	0.0144154
701.467	0.0143744
701.545	0.0144595
701.623	0.0146069
701.701	0.0147923
701.780	0.0147002
701.858	0.0149228
701.936	0.0150541
702.014	0.0153837
702.092	0.0156559
702.170	0.0159962
702.248	0.0162958
702.326	0.0165554
702.405	0.0170435
702.483	0.0174100
702.561	0.0179075
702.639	0.0182960
702.717	0.0188302
702.795	0.0194777
702.873	0.0198972
702.951	0.0202686
703.030	0.0205649
703.108	0.0206411
703.186	0.0208576
703.264	0.0209338
703.342	0.0206271
703.420	0.0201550
703.498	0.0198259
703.576	0.0190641
703.655	0.0184125
703.733	0.0176714
703.811	0.0167758
703.889	0.0158676
703.967	0.0149020
704.045	0.0140723
704.123	0.0132401
704.201	0.0123878
704.280	0.0116136
704.358	0.0108421
704.436	0.0102654
704.514	0.00984062
704.592	0.00939941
704.670	0.00915176
704.748	0.00888161
704.826	0.00891525
704.905	0.00898743
704.983	0.00894836
705.061	0.00931694
705.139	0.00958633
705.217	0.00993240
705.295	0.0103517
705.373	0.0108701
705.451	0.0113917
705.530	0.0121240
705.608	0.0126324
705.686	0.0134252
705.764	0.0139843
705.842	0.0145136
705.920	0.0151856
705.998	0.0155882
706.076	0.0161153
706.155	0.0165678
706.233	0.0168507
706.311	0.0169924
706.389	0.0171217
706.467	0.0170064
706.545	0.0170390
706.623	0.0170959
706.701	0.0170470
706.780	0.0167133
706.858	0.0164590
706.936	0.0164504
707.014	0.0162873
707.092	0.0163485
707.170	0.0162624
707.248	0.0162156
707.326	0.0161694
707.405	0.0163243
707.483	0.0164499
707.561	0.0166618
707.639	0.0169076
707.717	0.0172240
707.795	0.0175623
707.873	0.0178783
707.951	0.0181950
708.030	0.0183054
708.108	0.0186215
708.186	0.0190276
708.264	0.0191273
708.342	0.0193768
708.420	0.0194528
708.498	0.0195207
708.576	0.0196477
708.655	0.0196306
708.733	0.0194053
708.811	0.0192743
708.889	0.0191696
708.967	0.0188133
709.045	0.0184308
709.123	0.0179948
709.201	0.0176186
709.280	0.0170973
709.358	0.0163760
709.436	0.0157991
709.514	0.0150314
709.592	0.0142849
709.670	0.0135464
709.748	0.0127304
709.826	0.0117646
709.905	0.0111727
709.983	0.0104636
710.061	0.00986382
710.139	0.00921753
710.217	0.00886391
710.295	0.00850037
710.373	0.00814102
710.451	0.00814766
710.530	0.00804817
710.608	0.00818871
710.686	0.00822906
710.764	0.00869598
710.842	0.00917084
710.920	0.00959526
710.998	0.0102364
711.076	0.0109192
711.155	0.0115198
711.233	0.0122008
711.311	0.0129393
711.389	0.0138081
711.467	0.0142281
711.545	0.0147673
711.623	0.0154794
711.701	0.0161216
711.780	0.0166026
711.858	0.0170209
711.936	0.0175482
712.014	0.0179347
712.092	0.0182908
712.170	0.0182891
712.248	0.0184507
712.326	0.0185379
712.405	0.0185263
712.483	0.0183328
712.561	0.0182641
712.639	0.0181203
712.717	0.0179833
712.795	0.0177493
712.873	0.0175278
712.951	0.0174503
713.030	0.0174352
713.108	0.0173994
713.186	0.0173246
713.264	0.0171282
713.342	0.0172012
713.420	0.0173837
713.498	0.0175379
713.576	0.0176330
713.655	0.0176068
713.733	0.0179654
713.811	0.0181007
713.889	0.0182569
713.967	0.0184149
714.045	0.0184388
714.123	0.0185601
714.201	0.0184311
714.280	0.0184581
714.358	0.0182705
714.436	0.0181001
714.514	0.0179543
714.592	0.0175149
714.670	0.0172598
714.748	0.0168906
714.826	0.0165622
714.905	0.0162137
714.983	0.0156557
715.061	0.0152582
715.139	0.0147636
715.217	0.0142708
715.295	0.0138522
715.373	0.0134089
715.451	0.0129400
715.530	0.0124976
715.608	0.0122762
715.686	0.0118768
715.764	0.0115992
715.842	0.0112260
715.920	0.0110994
715.998	0.0110480
716.076	0.0110540
716.155	0.0107919
716.233	0.0107713
716.311	0.0108971
716.389	0.0108114
716.467	0.0108943
716.545	0.0110622
716.623	0.0114666
716.701	0.0115494
716.780	0.0116769
716.858	0.0121613
716.936	0.0125221
717.014	0.0129454
717.092	0.0132417
717.170	0.0134999
717.248	0.0139650
717.326	0.0145560
717.405	0.0148859
717.483	0.0152397
717.561	0.0156478
717.639	0.0159877
717.717	0.0163354
717.795	0.0166712
717.873	0.0171249
717.951	0.0173698
718.030	0.0177321
718.108	0.0180521
718.186	0.0181030
718.264	0.0181870
718.342	0.0181895
718.420	0.0185278
718.498	0.0184602
718.576	0.0184306
718.655	0.0184219
718.733	0.0185113
718.811	0.0184015
718.889	0.0181857
718.967	0.0180869
719.045	0.0178771
719.123	0.0177077
719.201	0.0175612
719.280	0.0172979
719.358	0.0170039
719.436	0.0168369
719.514	0.0165170
719.592	0.0163287
719.670	0.0163753
719.748	0.0161568
719.826	0.0160393
719.905	0.0161250
719.983	0.0159523
720.061	0.0159095
720.139	0.0158806
720.217	0.0157549
720.295	0.0158237
720.373	0.0156041
720.451	0.0155979
720.530	0.0155827
720.608	0.0153999
720.686	0.0150871
720.764	0.0149104
720.842	0.0149120
720.920	0.0146609
720.998	0.0144245
721.076	0.0140587
721.155	0.0139310
721.233	0.0138108
721.311	0.0136080
721.389	0.0136002
721.467	0.0134772
721.545	0.0133048
721.623	0.0133420
721.701	0.0133616
721.780	0.0132777
721.858	0.0132701
721.936	0.0132932
722.014	0.0130534
722.092	0.0128675
722.170	0.0129417
722.248	0.0128078
722.326	0.0127888
722.405	0.0128241
722.483	0.0129211
722.561	0.0129331
722.639	0.0128872
722.717	0.0131313
722.795	0.0133472
722.873	0.0136391
722.951	0.0138037
723.030	0.0141994
723.108	0.0143371
723.186	0.0149162
723.264	0.0153312
723.342	0.0157211
723.420	0.0159911
723.498	0.0163409
723.576	0.0166139
723.655	0.0170311
723.733	0.0172980
723.811	0.0174605
723.889	0.0176325
723.967	0.0178514
724.045	0.0177072
724.123	0.0176031
724.201	0.0174400
724.280	0.0174454
724.358	0.0170840
724.436	0.0169688
724.514	0.0167379
724.592	0.0165911
724.670	0.0164619
724.748	0.0162312
724.826	0.0159272
724.905	0.0157004
724.983	0.0155039
725.061	0.0154433
725.139	0.0153563
725.217	0.0153559
725.295	0.0150257
725.373	0.0150199
725.451	0.0150783
725.530	0.0152774
725.608	0.0152612
725.686	0.0151766
725.764	0.0152029
725.842	0.0152822
725.920	0.0152010
725.998	0.0153649
726.076	0.0154534
726.155	0.0153952
726.233	0.0155344
726.311	0.0155618
726.389	0.0156097
726.467	0.0154315
726.545	0.0156268
726.623	0.0154747
726.701	0.0154425
726.780	0.0152434
726.858	0.0151569
726.936	0.0152032
727.014	0.0153437
727.092	0.0152141
727.170	0.0149893
727.248	0.0148904
727.326	0.0150118
727.405	0.0149693
727.483	0.0148321
727.561	0.0148445
727.639	0.0146618
727.717	0.0147641
727.795	0.0146897
727.873	0.0145974
727.951	0.0145480
728.030	0.0144022
728.108	0.0143757
728.186	0.0141900
728.264	0.0142655
728.342	0.0141545
728.420	0.0141502
728.498	0.0140475
728.576	0.0138834
728.655	0.0139310
728.733	0.0141423
728.811	0.0140517
728.889	0.0142756
728.967	0.0143867
729.045	0.0147507
729.123	0.0148151
729.201	0.0148740
729.280	0.0150706
729.358	0.0153959
729.436	0.0154832
729.514	0.0157246
729.592	0.0157833
729.670	0.0157948
729.748	0.0160381
729.826	0.0161620
729.905	0.0162052
729.983	0.0161950
730.061	0.0161510
730.139	0.0161851
730.217	0.0159008
730.295	0.0157258
730.373	0.0155743
730.451	0.0153669
730.530	0.0152805
730.608	0.0151046
730.686	0.0149436
730.764	0.0147768
730.842	0.0147575
730.920	0.0146255
730.998	0.0145760
731.076	0.0147927
731.155	0.0148036
731.233	0.0149114
731.311	0.0149949
731.389	0.0150442
731.467	0.0150974
731.545	0.0152259
731.623	0.0153975
731.701	0.0155530
731.780	0.0156177
731.858	0.0156254
731.936	0.0156979
732.014	0.0158600
732.092	0.0160056
732.170	0.0160050
732.248	0.0159817
732.326	0.0159900
732.405	0.0157627
732.483	0.0159017
732.561	0.0157246
732.639	0.0155995
732.717	0.0153465
732.795	0.0152463
732.873	0.0150993
732.951	0.0148507
733.030	0.0146636
733.108	0.0144961
733.186	0.0146095
733.264	0.0145083
733.342	0.0145769
733.420	0.0146211
733.498	0.0147661
733.576	0.0147581
733.655	0.0149196
733.733	0.0149043
733.811	0.0151308
733.889	0.0153524
733.967	0.0156377
734.045	0.0154913
734.123	0.0155598
734.201	0.0155425
734.280	0.0155517
734.358	0.0154900
734.436	0.0154243
734.514	0.0152795
734.592	0.0153235
734.670	0.0152455
734.748	0.0150356
734.826	0.0150594
734.905	0.0149197
734.983	0.0148038
735.061	0.0147726
735.139	0.0146550
735.217	0.0147466
735.295	0.0148049
735.373	0.0147174
735.451	0.0147971
735.530	0.0149162
735.608	0.0148905
735.686	0.0148881
735.764	0.0149934
735.842	0.0151454
735.920	0.0150362
735.998	0.0152171
736.076	0.0152778
736.155	0.0153496
736.233	0.0155006
736.311	0.0155095
736.389	0.0155435
736.467	0.0157460
736.545	0.0157828
736.623	0.0159547
736.701	0.0159507
736.780	0.0159973
736.858	0.0159901
736.936	0.0160217
737.014	0.0160003
737.092	0.0159488
737.170	0.0159133
737.248	0.0158226
737.326	0.0155721
737.405	0.0154781
737.483	0.0152781
737.561	0.0151873
737.639	0.0152141
737.717	0.0149889
737.795	0.0149186
737.873	0.0147609
737.951	0.0146984
738.030	0.0146488
738.108	0.0147070
738.186	0.0146891
738.264	0.0146002
738.342	0.0145529
738.420	0.0146378
738.498	0.0147680
738.576	0.0148129
738.655	0.0149239
738.733	0.0150475
738.811	0.0150339
738.889	0.0152397
738.967	0.0152891
739.045	0.0152653
739.123	0.0152655
739.201	0.0153980
739.280	0.0153457
739.358	0.0152475
739.436	0.0152908
739.514	0.0151257
739.592	0.0152969
739.670	0.0152513
739.748	0.0151805
739.826	0.0151845
739.905	0.0151993
739.983	0.0152210
740.061	0.0151555
740.139	0.0153698
740.217	0.0154891
740.295	0.0154823
740.373	0.0155134
740.451	0.0153743
740.530	0.0155000
740.608	0.0154456
740.686	0.0155942
740.764	0.0156627
740.842	0.0155976
740.920	0.0153626
740.998	0.0153255
741.076	0.0155286
741.155	0.0154549
741.233	0.0153295
741.311	0.0153760
741.389	0.0153576
741.467	0.0152729
741.545	0.0152751
741.623	0.0152946
741.701	0.0154122
741.780	0.0152767
741.858	0.0153259
741.936	0.0153542
742.014	0.0152425
742.092	0.0151646
742.170	0.0153326
742.248	0.0152728
742.326	0.0152885
742.405	0.0152987
742.483	0.0151935
742.561	0.0152212
742.639	0.0151772
742.717	0.0152682
742.795	0.0153599
742.873	0.0152818
742.951	0.0152596
743.030	0.0153869
743.108	0.0154005
743.186	0.0153643
743.264	0.0153816
743.342	0.0154951
743.420	0.0152290
743.498	0.0151293
743.576	0.0151416
743.655	0.0151485
743.733	0.0151376
743.811	0.0149899
743.889	0.0148848
743.967	0.0149776
744.045	0.0149754
744.123	0.0147540
744.201	0.0148988
744.280	0.0148238
744.358	0.0148909
744.436	0.0149371
744.514	0.0151368
744.592	0.0153442
744.670	0.0153621
744.748	0.0155457
744.826	0.0156155
744.905	0.0157807
744.983	0.0159244
745.061	0.0158848
745.139	0.0159079
745.217	0.0159306
745.295	0.0158630
745.373	0.0158347
745.451	0.0156114
745.530	0.0157139
745.608	0.0154801
745.686	0.0153302
745.764	0.0151537
745.842	0.0150608
745.920	0.0150696
745.998	0.0148260
746.076	0.0147469
746.155	0.0146942
746.233	0.0146024
746.311	0.0145933
746.389	0.0146398
746.467	0.0146134
746.545	0.0146146
746.623	0.0149055
746.701	0.0149776
746.780	0.0149940
746.858	0.0149676
746.936	0.0152906
747.014	0.0153954
747.092	0.0155714
747.170	0.0157924
747.248	0.0158764
747.326	0.0159989
747.405	0.0160078
747.483	0.0157839
747.561	0.0160550
747.639	0.0159124
747.717	0.0159848
747.795	0.0158523
747.873	0.0156895
747.951	0.0156005
748.030	0.0156239
748.108	0.0155029
748.186	0.0153041
748.264	0.0153555
748.342	0.0151828
748.420	0.0151648
748.498	0.0150218
748.576	0.0149397
748.655	0.0148343
748.733	0.0149855
748.811	0.0149923
748.889	0.0149019
748.967	0.0150266
749.045	0.0149356
749.123	0.0150234
749.201	0.0151342
749.280	0.0150366
749.358	0.0151007
749.436	0.0152154
749.514	0.0153017
749.592	0.0153455
749.670	0.0153344
749.748	0.0153609
749.826	0.0154914
749.905	0.0153390
749.983	0.0152566
750.061	0.0152989
750.139	0.0152435
750.217	0.0153754
750.295	0.0154140
750.373	0.0153236
750.451	0.0154088
750.530	0.0153871
750.608	0.0152779
750.686	0.0152245
750.764	0.0154023
750.842	0.0154335
750.920	0.0152499
750.998	0.0152647
751.076	0.0151226
751.155	0.0151163
751.233	0.0151013
751.311	0.0150514
751.389	0.0151069
751.467	0.0151038
751.545	0.0149722
751.623	0.0149143
751.701	0.0149080
751.780	0.0151079
751.858	0.0149117
751.936	0.0148390
752.014	0.0149038
752.092	0.0149754
752.170	0.0149661
752.248	0.0150323
752.326	0.0150237
752.405	0.0150391
752.483	0.0151919
752.561	0.0152965
752.639	0.0152137
752.717	0.0153723
752.795	0.0153563
752.873	0.0154862
752.951	0.0155088
753.030	0.0154061
753.108	0.0154870
753.186	0.0154069
753.264	0.0152406
753.342	0.0153001
753.420	0.0153352
753.498	0.0151650
753.576	0.0151058
753.655	0.0151252
753.733	0.0148909
753.811	0.0149261
753.889	0.0148682
753.967	0.0146854
754.045	0.0147681
754.123	0.0148078
754.201	0.0149963
754.280	0.0149484
754.358	0.0149117
754.436	0.0149533
754.514	0.0150086
754.592	0.0152612
754.670	0.0152876
754.748	0.0152847
754.826	0.0154987
754.905	0.0155836
754.983	0.0155984
755.061	0.0156458
755.139	0.0155976
755.217	0.0156866
755.295	0.0159146
755.373	0.0157620
755.451	0.0158146
755.530	0.0157510
755.608	0.0159096
755.686	0.0158447
755.764	0.0157124
755.842	0.0156730
755.920	0.0158121
755.998	0.0156147
756.076	0.0156191
756.155	0.0154153
756.233	0.0154166
756.311	0.0151530
756.389	0.0152586
756.467	0.0153116
756.545	0.0151579
756.623	0.0149480
756.701	0.0149780
756.780	0.0148403
756.858	0.0149677
756.936	0.0148700
757.014	0.0148146
757.092	0.0148856
757.170	0.0147718
757.248	0.0147498
757.326	0.0149371
757.405	0.0147720
757.483	0.0149336
757.561	0.0150719
757.639	0.0150263
757.717	0.0151610
757.795	0.0151928
757.873	0.0152517
757.951	0.0153524
758.030	0.0153146
758.108	0.0154533
758.186	0.0155784
758.264	0.0155364
758.342	0.0153970
758.420	0.0156773
758.498	0.0154274
758.576	0.0155124
758.655	0.0154964
758.733	0.0154446
758.811	0.0153120
758.889	0.0153773
758.967	0.0153415
759.045	0.0152805
759.123	0.0152190
759.201	0.0151251
759.280	0.0150703
759.358	0.0148604
759.436	0.0148620
759.514	0.0148722
759.592	0.0148920
759.670	0.0148304
759.748	0.0147753
759.826	0.0147603
759.905	0.0147642
759.983	0.0150340
760.061	0.0150493
760.139	0.0152048
760.217	0.0150671
760.295	0.0152711
760.373	0.0152653
760.451	0.0153626
760.530	0.0154054
760.608	0.0154666
760.686	0.0155279
760.764	0.0156199
760.842	0.0154459
760.920	0.0155573
760.998	0.0154392
761.076	0.0155169
761.155	0.0155751
761.233	0.0154640
761.311	0.0154486
761.389	0.0153608
761.467	0.0152956
761.545	0.0152102
761.623	0.0150673
761.701	0.0151834
761.780	0.0151411
761.858	0.0150975
761.936	0.0149751
762.014	0.0149767
762.092	0.0149072
762.170	0.0149657
762.248	0.0150198
762.326	0.0148136
762.405	0.0150864
762.483	0.0151820
762.561	0.0150972
762.639	0.0152496
762.717	0.0153296
762.795	0.0153857
762.873	0.0153845
762.951	0.0155008
763.030	0.0156004
763.108	0.0155692
763.186	0.0156995
763.264	0.0156963
763.342	0.0156729
763.420	0.0156239
763.498	0.0156184
763.576	0.0156363
763.655	0.0154796
763.733	0.0153837
763.811	0.0154663
763.889	0.0153574
763.967	0.0153141
764.045	0.0152396
764.123	0.0150679
764.201	0.0151579
764.280	0.0152078
764.358	0.0149797
764.436	0.0149780
764.514	0.0150754
764.592	0.0150362
764.670	0.0148254
764.748	0.0149585
764.826	0.0150397
764.905	0.0150996
764.983	0.0151733
765.061	0.0151618
765.139	0.0151007
765.217	0.0152156
765.295	0.0153226
765.373	0.0152390
765.451	0.0152807
765.530	0.0153648
765.608	0.0152747
765.686	0.0154372
765.764	0.0152084
765.842	0.0153851
765.920	0.0153441
765.998	0.0154393
766.076	0.0154195
766.155	0.0153865
766.233	0.0153822
766.311	0.0153798
766.389	0.0154673
766.467	0.0154243
766.545	0.0155920
766.623	0.0154921
766.701	0.0155231
766.780	0.0153815
766.858	0.0152003
766.936	0.0152599
767.014	0.0153592
767.092	0.0153216
767.170	0.0152734
767.248	0.0150619
767.326	0.0150477
767.405	0.0150224
767.483	0.0148697
767.561	0.0149109
767.639	0.0148898
767.717	0.0148786
767.795	0.0148573
767.873	0.0149763
767.951	0.0150528
768.030	0.0151225
768.108	0.0150475
768.186	0.0151558
768.264	0.0152689
768.342	0.0154183
768.420	0.0155630
768.498	0.0156065
768.576	0.0156687
768.655	0.0156853
768.733	0.0156871
768.811	0.0158216
768.889	0.0156169
768.967	0.0157192
769.045	0.0156756
769.123	0.0154704
769.201	0.0154343
769.280	0.0154446
769.358	0.0152853
769.436	0.0153320
769.514	0.0153109
769.592	0.0152671
769.670	0.0152441
769.748	0.0152483
769.826	0.0152197
769.905	0.0151199
769.983	0.0151183
770.061	0.0150049
770.139	0.0150468
770.217	0.0150970
770.295	0.0151748
770.373	0.0152020
770.451	0.0151603
770.530	0.0152176
770.608	0.0153085
770.686	0.0152729
770.764	0.0153248
770.842	0.0154117
770.920	0.0153107
770.998	0.0154142
771.076	0.0154036
771.155	0.0155556
771.233	0.0156705
771.311	0.0156023
771.389	0.0155396
771.467	0.0155090
771.545	0.0155904
771.623	0.0155660
771.701	0.0155170
771.780	0.0154989
771.858	0.0154523
771.936	0.0155831
772.014	0.0154195
772.092	0.0152343
772.170	0.0152853
772.248	0.0153429
772.326	0.0153793
772.405	0.0152971
772.483	0.0153301
772.561	0.0151687
772.639	0.0151823
772.717	0.0151665
772.795	0.0151942
772.873	0.0151666
772.951	0.0152464
773.030	0.0151949
773.108	0.0150961
773.186	0.0151916
773.264	0.0153010
773.342	0.0152175
773.420	0.0153742
773.498	0.0153532
773.576	0.0154198
773.655	0.0155120
773.733	0.0155205
773.811	0.0154456
773.889	0.0154484
773.967	0.0155528
774.045	0.0153633
774.123	0.0155164
774.201	0.0155862
774.280	0.0154692
774.358	0.0155120
774.436	0.0154861
774.514	0.0153292
774.592	0.0152274
774.670	0.0152446
774.748	0.0152014
774.826	0.0152668
774.905	0.0150844
774.983	0.0150779
775.061	0.0148989
775.139	0.0149451
775.217	0.0149428
775.295	0.0149171
775.373	0.0149165
775.451	0.0148590
775.530	0.0150125
775.608	0.0149828
775.686	0.0150383
775.764	0.0150579
775.842	0.0150607
775.920	0.0152098
775.998	0.0150323
776.076	0.0151454
776.155	0.0154227
776.233	0.0155575
776.311	0.0154015
776.389	0.0154539
776.467	0.0156147
776.545	0.0154922
776.623	0.0157393
776.701	0.0154455
776.780	0.0156782
776.858	0.0157100
776.936	0.0156792
777.014	0.0155049
777.092	0.0155138
777.170	0.0155212
777.248	0.0153808
777.326	0.0153619
777.405	0.0152481
777.483	0.0151550
777.561	0.0152488
777.639	0.0150948
777.717	0.0152093
777.795	0.0150684
777.873	0.0151026
777.951	0.0149770
778.030	0.0151314
778.108	0.0151116
778.186	0.0150410
778.264	0.0151965
778.342	0.0152967
778.420	0.0152809
778.498	0.0152631
778.576	0.0150643
778.655	0.0152512
778.733	0.0153048
778.811	0.0151661
778.889	0.0152850
778.967	0.0153374
779.045	0.0153748
779.123	0.0153393
779.201	0.0153085
779.280	0.0153588
779.358	0.0153506
779.436	0.0153753
779.514	0.0153901
779.592	0.0153298
779.670	0.0152386
779.748	0.0153120
779.826	0.0154028
779.905	0.0153354
779.983	0.0152573
780.061	0.0154629
780.139	0.0153171
780.217	0.0153033
780.295	0.0154473
780.373	0.0152940
780.451	0.0153770
780.530	0.0153787
780.608	0.0152585
780.686	0.0151316
780.764	0.0152972
780.842	0.0152379
780.920	0.0152397
780.998	0.0152354
781.076	0.0152269
781.155	0.0151948
781.233	0.0153070
781.311	0.0151592
781.389	0.0152733
781.467	0.0153408
781.545	0.0153767
781.623	0.0151917
781.701	0.0152631
781.780	0.0153642
781.858	0.0153143
781.936	0.0154171
782.014	0.0153996
782.092	0.0153490
782.170	0.0155482
782.248	0.0154739
782.326	0.0154430
782.405	0.0153574
782.483	0.0153164
782.561	0.0154691
782.639	0.0154722
782.717	0.0152991
782.795	0.0153214
782.873	0.0151354
782.951	0.0152832
783.030	0.0151663
783.108	0.0150043
783.186	0.0148815
783.264	0.0148715
783.342	0.0148059
783.420	0.0146843
783.498	0.0147595
783.576	0.0148454
783.655	0.0149051
783.733	0.0147232
783.811	0.0146633
783.889	0.0147522
783.967	0.0149274
784.045	0.0150237
784.123	0.0148827
784.201	0.0150459
784.280	0.0151307
784.358	0.0152182
784.436	0.0151105
784.514	0.0152357
784.592	0.0153797
784.670	0.0154134
784.748	0.0153697
784.826	0.0153076
784.905	0.0152792
784.983	0.0154737
785.061	0.0155935
785.139	0.0153858
785.217	0.0153818
785.295	0.0153446
785.373	0.0154299
785.451	0.0153588
785.530	0.0153396
785.608	0.0153222
785.686	0.0154188
785.764	0.0153017
785.842	0.0153673
785.920	0.0152776
785.998	0.0151048
786.076	0.0152353
786.155	0.0152148
786.233	0.0154141
786.311	0.0152595
786.389	0.0153748
786.467	0.0153976
786.545	0.0155481
786.623	0.0155134
786.701	0.0154107
786.780	0.0154060
786.858	0.0152788
786.936	0.0153884
787.014	0.0154032
787.092	0.0154689
787.170	0.0154803
787.248	0.0154753
787.326	0.0154221
787.405	0.0153754
787.483	0.0153610
787.561	0.0152826
787.639	0.0154192
787.717	0.0152387
787.795	0.0153266
787.873	0.0152872
787.951	0.0152456
788.030	0.0152940
788.108	0.0152782
788.186	0.0153716
788.264	0.0152519
788.342	0.0151543
788.420	0.0152039
788.498	0.0151440
788.576	0.0152002
788.655	0.0150897
788.733	0.0151410
788.811	0.0151021
788.889	0.0151024
788.967	0.0150584
789.045	0.0151774
789.123	0.0152161
789.201	0.0151501
789.280	0.0152002
789.358	0.0151075
789.436	0.0151051
789.514	0.0152494
789.592	0.0150729
789.670	0.0153284
789.748	0.0153269
789.826	0.0153343
789.905	0.0153902
789.983	0.0152305
790.061	0.0154118
790.139	0.0153749
790.217	0.0154493
790.295	0.0154395
790.373	0.0153832
790.451	0.0153477
790.530	0.0153396
790.608	0.0152057
790.686	0.0152226
790.764	0.0152031
790.842	0.0152941
790.920	0.0151595
790.998	0.0150294
791.076	0.0149452
791.155	0.0149992
791.233	0.0149370
791.311	0.0148432
791.389	0.0148442
791.467	0.0149121
791.545	0.0148354
791.623	0.0147740
791.701	0.0149261
791.780	0.0148721
791.858	0.0152044
791.936	0.0150745
792.014	0.0150016
792.092	0.0152019
792.170	0.0152061
792.248	0.0154128
792.326	0.0155458
792.405	0.0154082
792.483	0.0155210
792.561	0.0156071
792.639	0.0156236
792.717	0.0156900
792.795	0.0155676
792.873	0.0156416
792.951	0.0155421
793.030	0.0155111
793.108	0.0156929
793.186	0.0156833
793.264	0.0156322
793.342	0.0155972
793.420	0.0156161
793.498	0.0156216
793.576	0.0157684
793.655	0.0157879
793.733	0.0157343
793.811	0.0158383
793.889	0.0158010
793.967	0.0156839
794.045	0.0158110
794.123	0.0158559
794.201	0.0158067
794.280	0.0158810
794.358	0.0157797
794.436	0.0157261
794.514	0.0158026
794.592	0.0157375
794.670	0.0156097
794.748	0.0156374
794.826	0.0155440
794.905	0.0154398
794.983	0.0153532
795.061	0.0152438
795.139	0.0150219
795.217	0.0151593
795.295	0.0151680
795.373	0.0148682
795.451	0.0148543
795.530	0.0149313
795.608	0.0149482
795.686	0.0146804
795.764	0.0147334
795.842	0.0146713
795.920	0.0146315
795.998	0.0144956
796.076	0.0145849
796.155	0.0146373
796.233	0.0145235
796.311	0.0145952
796.389	0.0146912
796.467	0.0148051
796.545	0.0145730
796.623	0.0148083
796.701	0.0147200
796.780	0.0148705
796.858	0.0149734
796.936	0.0149918
797.014	0.0149955
797.092	0.0151110
797.170	0.0151979
797.248	0.0152325
797.326	0.0152353
797.405	0.0152615
797.483	0.0153291
797.561	0.0152606
797.639	0.0153517
797.717	0.0155056
797.795	0.0155096
797.873	0.0155312
797.951	0.0156219
798.030	0.0155563
798.108	0.0156241
798.186	0.0156437
798.264	0.0155025
798.342	0.0154565
798.420	0.0154924
798.498	0.0155214
798.576	0.0155329
798.655	0.0156213
798.733	0.0155491
798.811	0.0155708
798.889	0.0155324
798.967	0.0155609
799.045	0.0155992
799.123	0.0157941
799.201	0.0156979
799.280	0.0157805
799.358	0.0158178
799.436	0.0160619
799.514	0.0159719
799.592	0.0160722
799.670	0.0160902
799.748	0.0160549
799.826	0.0160886
799.905	0.0160805
799.983	0.0160613
800.061	0.0160236
800.139	0.0158156
800.217	0.0159370
800.295	0.0156376
800.373	0.0155716
800.451	0.0154742
800.530	0.0153905
800.608	0.0153521
800.686	0.0149809
800.764	0.0149750
800.842	0.0148434
800.920	0.0146883
800.998	0.0145960
801.076	0.0142825
801.155	0.0141997
801.233	0.0142286
801.311	0.0141296
801.389	0.0140870
801.467	0.0139023
801.545	0.0138952
801.623	0.0139579
801.701	0.0139312
801.780	0.0141002
801.858	0.0140732
801.936	0.0140872
802.014	0.0141479
802.092	0.0142596
802.170	0.0144930
802.248	0.0145873
802.326	0.0145819
802.405	0.0147125
802.483	0.0147998
802.561	0.0149329
802.639	0.0151234
802.717	0.0152390
802.795	0.0153703
802.873	0.0153851
802.951	0.0155702
803.030	0.0158048
803.108	0.0157182
803.186	0.0159116
803.264	0.0159178
803.342	0.0158076
803.420	0.0156371
803.498	0.0158594
803.576	0.0159339
803.655	0.0158486
803.733	0.0158836
803.811	0.0158350
803.889	0.0157407
803.967	0.0156799
804.045	0.0157533
804.123	0.0158163
804.201	0.0159486
804.280	0.0157812
804.358	0.0158007
804.436	0.0159334
804.514	0.0158458
804.592	0.0158462
804.670	0.0158918
804.748	0.0160542
804.826	0.0160413
804.905	0.0159885
804.983	0.0159860
805.061	0.0160208
805.139	0.0161001
805.217	0.0161674
805.295	0.0159805
805.373	0.0159686
805.451	0.0160542
805.530	0.0160877
805.608	0.0158453
805.686	0.0157507
805.764	0.0157740
805.842	0.0157401
805.920	0.0154995
805.998	0.0154899
806.076	0.0152428
806.155	0.0150503
806.233	0.0148235
806.311	0.0150015
806.389	0.0146965
806.467	0.0144256
806.545	0.0144047
806.623	0.0143424
806.701	0.0141797
806.780	0.0139702
806.858	0.0138192
806.936	0.0138647
807.014	0.0138010
807.092	0.0137226
807.170	0.0137575
807.248	0.0136813
807.326	0.0137009
807.405	0.0138087
807.483	0.0138751
807.561	0.0138747
807.639	0.0140179
807.717	0.0139693
807.795	0.0142384
807.873	0.0144144
807.951	0.0145951
808.030	0.0147391
808.108	0.0147861
808.186	0.0150680
808.264	0.0151456
808.342	0.0152734
808.420	0.0155535
808.498	0.0156069
808.576	0.0155860
808.655	0.0158005
808.733	0.0157867
808.811	0.0157389
808.889	0.0158335
808.967	0.0158152
809.045	0.0159270
809.123	0.0161095
809.201	0.0158035
809.280	0.0157204
809.358	0.0158925
809.436	0.0157526
809.514	0.0157481
809.592	0.0158962
809.670	0.0158932
809.748	0.0157504
809.826	0.0157709
809.905	0.0158645
809.983	0.0158700
810.061	0.0158849
810.139	0.0159038
810.217	0.0158204
810.295	0.0158902
810.373	0.0160152
810.451	0.0160738
810.530	0.0159232
810.608	0.0159360
810.686	0.0159320
810.764	0.0159552
810.842	0.0160352
810.920	0.0157481
810.998	0.0159180
811.076	0.0159223
811.155	0.0156812
811.233	0.0156602
811.311	0.0155679
811.389	0.0154337
811.467	0.0151865
811.545	0.0151694
811.623	0.0150893
811.701	0.0148219
811.780	0.0147952
811.858	0.0147659
811.936	0.0145213
812.014	0.0145073
812.092	0.0142021
812.170	0.0142506
812.248	0.0141698
812.326	0.0142771
812.405	0.0139234
812.483	0.0140903
812.561	0.0140349
812.639	0.0138732
812.717	0.0141972
812.795	0.0141286
812.873	0.0140359
812.951	0.0142028
813.030	0.0141926
813.108	0.0143108
813.186	0.0144732
813.264	0.0144302
813.342	0.0143898
813.420	0.0146532
813.498	0.0147504
813.576	0.0148094
813.655	0.0150467
813.733	0.0150685
813.811	0.0151573
813.889	0.0151694
813.967	0.0153849
814.045	0.0154300
814.123	0.0154247
814.201	0.0156129
814.280	0.0157232
814.358	0.0156915
814.436	0.0157215
814.514	0.0160136
814.592	0.0159561
814.670	0.0158018
814.748	0.0158894
814.826	0.0159570
814.905	0.0159813
814.983	0.0160894
815.061	0.0159494
815.139	0.0160836
815.217	0.0161432
815.295	0.0160506
815.373	0.0160483
815.451	0.0159053
815.530	0.0158190
815.608	0.0157835
815.686	0.0160291
815.764	0.0160447
815.842	0.0159467
815.920	0.0157792
815.998	0.0158057
816.076	0.0156767
816.155	0.0157943
816.233	0.0157339
816.311	0.0156792
816.389	0.0156573
816.467	0.0154360
816.545	0.0153835
816.623	0.0152702
816.701	0.0153207
816.780	0.0151490
816.858	0.0151096
816.936	0.0151509
817.014	0.0150822
817.092	0.0151044
817.170	0.0150265
817.248	0.0146847
817.326	0.0148272
817.405	0.0147923
817.483	0.0145888
817.561	0.0146844
817.639	0.0144706
817.717	0.0144608
817.795	0.0144597
817.873	0.0145360
817.951	0.0145634
818.030	0.0146446
818.108	0.0146088
818.186	0.0146816
818.264	0.0147513
818.342	0.0146387
818.420	0.0146223
818.498	0.0149368
818.576	0.0148650
818.655	0.0149319
818.733	0.0150382
818.811	0.0150159
818.889	0.0151463
818.967	0.0152263
819.045	0.0152274
819.123	0.0153965
819.201	0.0152831
819.280	0.0153613
819.358	0.0155190
819.436	0.0154295
819.514	0.0155010
819.592	0.0155154
819.670	0.0155157
819.748	0.0155942
819.826	0.0156506
819.905	0.0155331
819.983	0.0155499
820.061	0.0155772
820.139	0.0157055
820.217	0.0157121
820.295	0.0157671
820.373	0.0157796
820.451	0.0158903
820.530	0.0157276
820.608	0.0156476
820.686	0.0157196
820.764	0.0158356
820.842	0.0156706
820.920	0.0156959
820.998	0.0157475
821.076	0.0157343
821.155	0.0155972
821.233	0.0155504
821.311	0.0156675
821.389	0.0155297
821.467	0.0155203
821.545	0.0154613
821.623	0.0154301
821.701	0.0153586
821.780	0.0153140
821.858	0.0153152
821.936	0.0152615
822.014	0.0152392
822.092	0.0152076
822.170	0.0151030
822.248	0.0151688
822.326	0.0151593
822.405	0.0151066
822.483	0.0150972
822.561	0.0149830
822.639	0.0151258
822.717	0.0150686
822.795	0.0150563
822.873	0.0148590
822.951	0.0149546
823.030	0.0148077
823.108	0.0147976
823.186	0.0148284
823.264	0.0147394
823.342	0.0148906
823.420	0.0148765
823.498	0.0148186
823.576	0.0149054
823.655	0.0150004
823.733	0.0149929
823.811	0.0150993
823.889	0.0150782
823.967	0.0151836
824.045	0.0152842
824.123	0.0151550
824.201	0.0152175
824.280	0.0152344
824.358	0.0152396
824.436	0.0153604
824.514	0.0153572
824.592	0.0153703
824.670	0.0155348
824.748	0.0153691
824.826	0.0153368
824.905	0.0154076
824.983	0.0153616
825.061	0.0152447
825.139	0.0153633
825.217	0.0152913
825.295	0.0153424
825.373	0.0152968
825.451	0.0153385
825.530	0.0153539
825.608	0.0152641
825.686	0.0152431
825.764	0.0152954
825.842	0.0152026
825.920	0.0152912
825.998	0.0153297
826.076	0.0153394
826.155	0.0153159
826.233	0.0153246
826.311	0.0153270
826.389	0.0154037
826.467	0.0153878
826.545	0.0153504
826.623	0.0155337
826.701	0.0153600
826.780	0.0154022
826.858	0.0153238
826.936	0.0154177
827.014	0.0153668
827.092	0.0152631
827.170	0.0154823
827.248	0.0153867
827.326	0.0154293
827.405	0.0154308
827.483	0.0153443
827.561	0.0152636
827.639	0.0151927
827.717	0.0152742
827.795	0.0149879
827.873	0.0150642
827.951	0.0151498
828.030	0.0151221
828.108	0.0151069
828.186	0.0150619
828.264	0.0150986
828.342	0.0149924
828.420	0.0150742
828.498	0.0151564
828.576	0.0151338
828.655	0.0151916
828.733	0.0150777
828.811	0.0151102
828.889	0.0151955
828.967	0.0151894
829.045	0.0151453
829.123	0.0152149
829.201	0.0152553
829.280	0.0152715
829.358	0.0153572
829.436	0.0153972
829.514	0.0153631
829.592	0.0154034
829.670	0.0152449
829.748	0.0152705
829.826	0.0152923
829.905	0.0153865
829.983	0.0153667
830.061	0.0153732
830.139	0.0153695
830.217	0.0153862
830.295	0.0152760
830.373	0.0153345
830.451	0.0153397
830.530	0.0152227
830.608	0.0152743
830.686	0.0153521
830.764	0.0153384
830.842	0.0151810
830.920	0.0150642
830.998	0.0151485
831.076	0.0151687
831.155	0.0149605
831.233	0.0151382
831.311	0.0150095
831.389	0.0150425
831.467	0.0150861
831.545	0.0149442
831.623	0.0151633
831.701	0.0151231
831.780	0.0149912
831.858	0.0149831
831.936	0.0150918
832.014	0.0150919
832.092	0.0150595
832.170	0.0151103
832.248	0.0151968
832.326	0.0151643
832.405	0.0150492
832.483	0.0150588
832.561	0.0151109
832.639	0.0151426
832.717	0.0151195
832.795	0.0151991
832.873	0.0151995
832.951	0.0150535
833.030	0.0152600
833.108	0.0152283
833.186	0.0151698
833.264	0.0152901
833.342	0.0152055
833.420	0.0152477
833.498	0.0152422
833.576	0.0151868
833.655	0.0152033
833.733	0.0153347
833.811	0.0152299
833.889	0.0152422
833.967	0.0152970
834.045	0.0153221
834.123	0.0152801
834.201	0.0153387
834.280	0.0152982
834.358	0.0152763
834.436	0.0154210
834.514	0.0152302
834.592	0.0154852
834.670	0.0153392
834.748	0.0155187
834.826	0.0155632
834.905	0.0153953
834.983	0.0154070
835.061	0.0154114
835.139	0.0153873
835.217	0.0154662
835.295	0.0154552
835.373	0.0153735
835.451	0.0154264
835.530	0.0154134
835.608	0.0154608
835.686	0.0154768
835.764	0.0155100
835.842	0.0153821
835.920	0.0154590
835.998	0.0155370
836.076	0.0154695
836.155	0.0153481
836.233	0.0153876
836.311	0.0152866
836.389	0.0153447
836.467	0.0152019
836.545	0.0152887
836.623	0.0151730
836.701	0.0151603
836.780	0.0152677
836.858	0.0152007
836.936	0.0151756
837.014	0.0150687
837.092	0.0150993
837.170	0.0150184
837.248	0.0148200
837.326	0.0150436
837.405	0.0149774
837.483	0.0150294
837.561	0.0149541
837.639	0.0148352
837.717	0.0149783
837.795	0.0149918
837.873	0.0149669
837.951	0.0150237
838.030	0.0151441
838.108	0.0150511
838.186	0.0151105
838.264	0.0150081
838.342	0.0150596
838.420	0.0152908
838.498	0.0151670
838.576	0.0152528
838.655	0.0151117
838.733	0.0151143
838.811	0.0151732
838.889	0.0152327
838.967	0.0152914
839.045	0.0151941
839.123	0.0152509
839.201	0.0153275
839.280	0.0154061
839.358	0.0154154
839.436	0.0154634
839.514	0.0153714
839.592	0.0154823
839.670	0.0155228
839.748	0.0156323
839.826	0.0154323
839.905	0.0156692
839.983	0.0156760
840.061	0.0156441
840.139	0.0156020
840.217	0.0157251
840.295	0.0157583
840.373	0.0155549
840.451	0.0156827
840.530	0.0157265
840.608	0.0156475
840.686	0.0155279
840.764	0.0156393
840.842	0.0155455
840.920	0.0155759
840.998	0.0154594
841.076	0.0154650
841.155	0.0154524
841.233	0.0154222
841.311	0.0154723
841.389	0.0153389
841.467	0.0152087
841.545	0.0153291
841.623	0.0154505
841.701	0.0153750
841.780	0.0153873
841.858	0.0152724
841.936	0.0153515
842.014	0.0152453
842.092	0.0151659
842.170	0.0152254
842.248	0.0150663
842.326	0.0151875
842.405	0.0151958
842.483	0.0151465
842.561	0.0149635
842.639	0.0149760
842.717	0.0149979
842.795	0.0149748
842.873	0.0148892
842.951	0.0148995
843.030	0.0148743
843.108	0.0148261
843.186	0.0149937
843.264	0.0148728
843.342	0.0148643
843.420	0.0149070
843.498	0.0151029
843.576	0.0150942
843.655	0.0151196
843.733	0.0150159
843.811	0.0150704
843.889	0.0150944
843.967	0.0151834
844.045	0.0152014
844.123	0.0152004
844.201	0.0152542
844.280	0.0153593
844.358	0.0153178
844.436	0.0153697
844.514	0.0153616
844.592	0.0153996
844.670	0.0153619
844.748	0.0154475
844.826	0.0154787
844.905	0.0154527
844.983	0.0153934
845.061	0.0154504
845.139	0.0156203
845.217	0.0155551
845.295	0.0155148
845.373	0.0155961
845.451	0.0155592
845.530	0.0156182
845.608	0.0156668
845.686	0.0156194
845.764	0.0156024
845.842	0.0154520
845.920	0.0156451
845.998	0.0156667
846.076	0.0156258
846.155	0.0154829
846.233	0.0154842
846.311	0.0155032
846.389	0.0155835
846.467	0.0154324
846.545	0.0154066
846.623	0.0155267
846.701	0.0154375
846.780	0.0155814
846.858	0.0154137
846.936	0.0152047
847.014	0.0153740
847.092	0.0153998
847.170	0.0153262
847.248	0.0153789
847.326	0.0153030
847.405	0.0153057
847.483	0.0152858
847.561	0.0151672
847.639	0.0152588
847.717	0.0151418
847.795	0.0151200
847.873	0.0150935
847.951	0.0151131
848.030	0.0150040
848.108	0.0150793
848.186	0.0150233
848.264	0.0151750
848.342	0.0150220
848.420	0.0148091
848.498	0.0150060
848.576	0.0150272
848.655	0.0150053
848.733	0.0150172
848.811	0.0148951
848.889	0.0150511
848.967	0.0150187
849.045	0.0148237
849.123	0.0149094
849.201	0.0151266
849.280	0.0150243
849.358	0.0151167
849.436	0.0150095
849.514	0.0151711
849.592	0.0150572
849.670	0.0151173
849.748	0.0151430
849.826	0.0152460
849.905	0.0152450
849.983	0.0152914
850.061	0.0151254
850.139	0.0152544
850.217	0.0152113
850.295	0.0152763
850.373	0.0154266
850.451	0.0153922
850.530	0.0153479
850.608	0.0152808
850.686	0.0154274
850.764	0.0153973
850.842	0.0155432
850.920	0.0154766
850.998	0.0156026
851.076	0.0155034
851.155	0.0155409
851.233	0.0154060
851.311	0.0154441
851.389	0.0155868
851.467	0.0157220
851.545	0.0156249
851.623	0.0155840
851.701	0.0154366
851.780	0.0154839
851.858	0.0155268
851.936	0.0155608
852.014	0.0155249
852.092	0.0154888
852.170	0.0155489
852.248	0.0154652
852.326	0.0152441
852.405	0.0152763
852.483	0.0152927
852.561	0.0152666
852.639	0.0150724
852.717	0.0149485
852.795	0.0152098
852.873	0.0150494
852.951	0.0150579
853.030	0.0150461
853.108	0.0152023
853.186	0.0151445
853.264	0.0151845
853.342	0.0151773
853.420	0.0149369
853.498	0.0149026
853.576	0.0150716
853.655	0.0150547
853.733	0.0150241
853.811	0.0149494
853.889	0.0151327
853.967	0.0150942
854.045	0.0150238
854.123	0.0149982
854.201	0.0149400
854.280	0.0149918
854.358	0.0149680
854.436	0.0149835
854.514	0.0149824
854.592	0.0149526
854.670	0.0150298
854.748	0.0149290
854.826	0.0149995
854.905	0.0148741
854.983	0.0150340
855.061	0.0150430
855.139	0.0150903
855.217	0.0151011
855.295	0.0149921
855.373	0.0151460
855.451	0.0151792
855.530	0.0151724
855.608	0.0152474
855.686	0.0153425
855.764	0.0153167
855.842	0.0154221
855.920	0.0153461
855.998	0.0152998
856.076	0.0152682
856.155	0.0153184
856.233	0.0156181
856.311	0.0154956
856.389	0.0155714
856.467	0.0155019
856.545	0.0154751
856.623	0.0154611
856.701	0.0155421
856.780	0.0155848
856.858	0.0155335
856.936	0.0155428
857.014	0.0154839
857.092	0.0155127
857.170	0.0155970
857.248	0.0155634
857.326	0.0155396
857.405	0.0155869
857.483	0.0155930
857.561	0.0155077
857.639	0.0154961
857.717	0.0155585
857.795	0.0155782
857.873	0.0155301
857.951	0.0154486
858.030	0.0156257
858.108	0.0155318
858.186	0.0154426
858.264	0.0154715
858.342	0.0152924
858.420	0.0152920
858.498	0.0153024
858.576	0.0153265
858.655	0.0151161
858.733	0.0153098
858.811	0.0151153
858.889	0.0151745
858.967	0.0151870
859.045	0.0152052
859.123	0.0152544
859.201	0.0152718
859.280	0.0151461
859.358	0.0151347
859.436	0.0151000
859.514	0.0152161
859.592	0.0150472
859.670	0.0151716
859.748	0.0151713
859.826	0.0150857
859.905	0.0152335
859.983	0.0152502
860.061	0.0152319
860.139	0.0149924
860.217	0.0151825
860.295	0.0152531
860.373	0.0150924
860.451	0.0152251
860.530	0.0151394
860.608	0.0152519
860.686	0.0151738
860.764	0.0150063
860.842	0.0150803
860.920	0.0151364
860.998	0.0150677
861.076	0.0151492
861.155	0.0151347
861.233	0.0151060
861.311	0.0152849
861.389	0.0153281
861.467	0.0151412
861.545	0.0152592
861.623	0.0152037
861.701	0.0153496
861.780	0.0154926
861.858	0.0152821
861.936	0.0154353
862.014	0.0154992
862.092	0.0154620
862.170	0.0155151
862.248	0.0155097
862.326	0.0156106
862.405	0.0156107
862.483	0.0156210
862.561	0.0154670
862.639	0.0154524
862.717	0.0155567
862.795	0.0154162
862.873	0.0155116
862.951	0.0154893
863.030	0.0154319
863.108	0.0155293
863.186	0.0154713
863.264	0.0153470
863.342	0.0155159
863.420	0.0153653
863.498	0.0154091
863.576	0.0153342
863.655	0.0152750
863.733	0.0153622
863.811	0.0153397
863.889	0.0154107
863.967	0.0154009
864.045	0.0153658
864.123	0.0153802
864.201	0.0153445
864.280	0.0153008
864.358	0.0151950
864.436	0.0151659
864.514	0.0153007
864.592	0.0151914
864.670	0.0151102
864.748	0.0151543
864.826	0.0153049
864.905	0.0153114
864.983	0.0152126
865.061	0.0151748
865.139	0.0151337
865.217	0.0151969
865.295	0.0152681
865.373	0.0151591
865.451	0.0151268
865.530	0.0152823
865.608	0.0152911
865.686	0.0152995
865.764	0.0152201
865.842	0.0152020
865.920	0.0151000
865.998	0.0152448
866.076	0.0151901
866.155	0.0150979
866.233	0.0151402
866.311	0.0151469
866.389	0.0150996
866.467	0.0151074
866.545	0.0150745
866.623	0.0151048
866.701	0.0151148
866.780	0.0150871
866.858	0.0151064
866.936	0.0150026
867.014	0.0151636
867.092	0.0150616
867.170	0.0151320
867.248	0.0152208
867.326	0.0152212
867.405	0.0151479
867.483	0.0153383
867.561	0.0153645
867.639	0.0152283
867.717	0.0153933
867.795	0.0153985
867.873	0.0154221
867.951	0.0153070
868.030	0.0153498
868.108	0.0155035
868.186	0.0154402
868.264	0.0154631
868.342	0.0154670
868.420	0.0155238
868.498	0.0154819
868.576	0.0154104
868.655	0.0154499
868.733	0.0154128
868.811	0.0154547
868.889	0.0154536
868.967	0.0153905
869.045	0.0154223
869.123	0.0154218
869.201	0.0155373
869.280	0.0154462
869.358	0.0155071
869.436	0.0154605
869.514	0.0153574
869.592	0.0154292
869.670	0.0153500
869.748	0.0154581
869.826	0.0153651
869.905	0.0154191
869.983	0.0154410
870.061	0.0153639
870.139	0.0151952
870.217	0.0152876
870.295	0.0153648
870.373	0.0153235
870.451	0.0151726
870.530	0.0152849
870.608	0.0152283
870.686	0.0150870
870.764	0.0152613
870.842	0.0151637
870.920	0.0151619
870.998	0.0152055
871.076	0.0151718
871.155	0.0152724
871.233	0.0150983
871.311	0.0151609
871.389	0.0152449
871.467	0.0153550
871.545	0.0152099
871.623	0.0151495
871.701	0.0150649
871.780	0.0151692
871.858	0.0151971
871.936	0.0151836
872.014	0.0151434
872.092	0.0151062
872.170	0.0152280
872.248	0.0151937
872.326	0.0151366
872.405	0.0152056
872.483	0.0152254
872.561	0.0152550
872.639	0.0152966
872.717	0.0152817
872.795	0.0151553
872.873	0.0151284
872.951	0.0151885
873.030	0.0152431
873.108	0.0152626
873.186	0.0152095
873.264	0.0151810
873.342	0.0152814
873.420	0.0152418
873.498	0.0153010
873.576	0.0151797
873.655	0.0151736
873.733	0.0153088
873.811	0.0152529
873.889	0.0151809
873.967	0.0153814
874.045	0.0153085
874.123	0.0153362
874.201	0.0152950
874.280	0.0153526
874.358	0.0153496
874.436	0.0153104
874.514	0.0152433
874.592	0.0152665
874.670	0.0153157
874.748	0.0154431
874.826	0.0154174
874.905	0.0153450
874.983	0.0153780
875.061	0.0155521
875.139	0.0155661
875.217	0.0153364
875.295	0.0152250
875.373	0.0152567
875.451	0.0153294
875.530	0.0153250
875.608	0.0152323
875.686	0.0152319
875.764	0.0151679
875.842	0.0150729
875.920	0.0150895
875.998	0.0151263
876.076	0.0152615
876.155	0.0151312
876.233	0.0151598
876.311	0.0150356
876.389	0.0151404
876.467	0.0149994
876.545	0.0151629
876.623	0.0152859
876.701	0.0152788
876.780	0.0151614
876.858	0.0151147
876.936	0.0151736
877.014	0.0152678
877.092	0.0153066
877.170	0.0153008
877.248	0.0152060
877.326	0.0151239
877.405	0.0151479
877.483	0.0152316
877.561	0.0151839
877.639	0.0152529
877.717	0.0152438
877.795	0.0151762
877.873	0.0151816
877.951	0.0151412
878.030	0.0151061
878.108	0.0152162
878.186	0.0151113
878.264	0.0150540
878.342	0.0151089
878.420	0.0150091
878.498	0.0152025
878.576	0.0151402
878.655	0.0151698
878.733	0.0151373
878.811	0.0151706
878.889	0.0152694
878.967	0.0152229
879.045	0.0152873
879.123	0.0153245
879.201	0.0153207
879.280	0.0154494
879.358	0.0153420
879.436	0.0153618
879.514	0.0152195
879.592	0.0154141
879.670	0.0154540
879.748	0.0153614
879.826	0.0153976
879.905	0.0154400
879.983	0.0154797
880.061	0.0155241
880.139	0.0153594
880.217	0.0153693
880.295	0.0154780
880.373	0.0154585
880.451	0.0153437
880.530	0.0153365
880.608	0.0153984
880.686	0.0153766
880.764	0.0153911
880.842	0.0153576
880.920	0.0154521
880.998	0.0151633
881.076	0.0154729
881.155	0.0155661
881.233	0.0155167
881.311	0.0153681
881.389	0.0152692
881.467	0.0151872
881.545	0.0152467
881.623	0.0154647
881.701	0.0153235
881.780	0.0151228
881.858	0.0153296
881.936	0.0152858
882.014	0.0151475
882.092	0.0151605
882.170	0.0151351
882.248	0.0150444
882.326	0.0151523
882.405	0.0151660
882.483	0.0150632
882.561	0.0150632
882.639	0.0150999
882.717	0.0150783
882.795	0.0152283
882.873	0.0151936
882.951	0.0152514
883.030	0.0151582
883.108	0.0151775
883.186	0.0152902
883.264	0.0150237
883.342	0.0152363
883.420	0.0152706
883.498	0.0152707
883.576	0.0152081
883.655	0.0152911
883.733	0.0154181
883.811	0.0153688
883.889	0.0152390
883.967	0.0153960
884.045	0.0153664
884.123	0.0153855
884.201	0.0153580
884.280	0.0153514
884.358	0.0153826
884.436	0.0153666
884.514	0.0153880
884.592	0.0155171
884.670	0.0154124
884.748	0.0153087
884.826	0.0152499
884.905	0.0154395
884.983	0.0152414
885.061	0.0152929
885.139	0.0152517
885.217	0.0152618
885.295	0.0151456
885.373	0.0152122
885.451	0.0152092
885.530	0.0150239
885.608	0.0150892
885.686	0.0152100
885.764	0.0150623
885.842	0.0151283
885.920	0.0149197
885.998	0.0150687
886.076	0.0150478
886.155	0.0149655
886.233	0.0150672
886.311	0.0151460
886.389	0.0150668
886.467	0.0152593
886.545	0.0152072
886.623	0.0151254
886.701	0.0151247
886.780	0.0152936
886.858	0.0153004
886.936	0.0152885
887.014	0.0152489
887.092	0.0152645
887.170	0.0154028
887.248	0.0151653
887.326	0.0151161
887.405	0.0153236
887.483	0.0153927
887.561	0.0153299
887.639	0.0153252
887.717	0.0153864
887.795	0.0153859
887.873	0.0152688
887.951	0.0151749
888.030	0.0151431
888.108	0.0151817
888.186	0.0151933
888.264	0.0152660
888.342	0.0152618
888.420	0.0153131
888.498	0.0152099
888.576	0.0153770
888.655	0.0153564
888.733	0.0153220
888.811	0.0153452
888.889	0.0154154
888.967	0.0155334
889.045	0.0155152
889.123	0.0154018
889.201	0.0155730
889.280	0.0155442
889.358	0.0154128
889.436	0.0154163
889.514	0.0153867
889.592	0.0152219
889.670	0.0152131
889.748	0.0151051
889.826	0.0151627
889.905	0.0150211
889.983	0.0150469
890.061	0.0148827
890.139	0.0147571
890.217	0.0148209
890.295	0.0148915
890.373	0.0148569
890.451	0.0148200
890.530	0.0148560
890.608	0.0149968
890.686	0.0148693
890.764	0.0150977
890.842	0.0151216
890.920	0.0151077
890.998	0.0152316
891.076	0.0152940
891.155	0.0155052
891.233	0.0155139
891.311	0.0155476
891.389	0.0157850
891.467	0.0156291
891.545	0.0157070
891.623	0.0157148
891.701	0.0156428
891.780	0.0156608
891.858	0.0155870
891.936	0.0154494
892.014	0.0155737
892.092	0.0153563
892.170	0.0153006
892.248	0.0153493
892.326	0.0151273
892.405	0.0150542
892.483	0.0150609
892.561	0.0150606
892.639	0.0150259
892.717	0.0149632
892.795	0.0150194
892.873	0.0148904
892.951	0.0149743
893.030	0.0151025
893.108	0.0150097
893.186	0.0150820
893.264	0.0151157
893.342	0.0151340
893.420	0.0151141
893.498	0.0151360
893.576	0.0151762
893.655	0.0154965
893.733	0.0153280
893.811	0.0152713
893.889	0.0154240
893.967	0.0155334
894.045	0.0153012
894.123	0.0154587
894.201	0.0153575
894.280	0.0154263
894.358	0.0155536
894.436	0.0154441
894.514	0.0153974
894.592	0.0153527
894.670	0.0154408
894.748	0.0154838
894.826	0.0154533
894.905	0.0151844
894.983	0.0152410
895.061	0.0153557
895.139	0.0153029
895.217	0.0152186
895.295	0.0152350
895.373	0.0152863
895.451	0.0150047
895.530	0.0149358
895.608	0.0151266
895.686	0.0151141
895.764	0.0149329
895.842	0.0149191
895.920	0.0149134
895.998	0.0148077
896.076	0.0148669
896.155	0.0149129
896.233	0.0149522
896.311	0.0149194
896.389	0.0150571
896.467	0.0150580
896.545	0.0150060
896.623	0.0149969
896.701	0.0151774
896.780	0.0153054
896.858	0.0151921
896.936	0.0151279
897.014	0.0152733
897.092	0.0153186
897.170	0.0152729
897.248	0.0152534
897.326	0.0154124
897.405	0.0153547
897.483	0.0152595
897.561	0.0154165
897.639	0.0154509
897.717	0.0153117
897.795	0.0152853
897.873	0.0152971
897.951	0.0152068
898.030	0.0150607
898.108	0.0150624
898.186	0.0150975
898.264	0.0150941
898.342	0.0150047
898.420	0.0151364
898.498	0.0150715
898.576	0.0149526
898.655	0.0150092
898.733	0.0149432
898.811	0.0149620
898.889	0.0151637
898.967	0.0151299
899.045	0.0151617
899.123	0.0151771
899.201	0.0153248
899.280	0.0152112
899.358	0.0154124
899.436	0.0154166
899.514	0.0154224
899.592	0.0155739
899.670	0.0154501
899.748	0.0155389
899.826	0.0156990
899.905	0.0156029
899.983	0.0155247
900.061	0.0155231
900.139	0.0154967
900.217	0.0156162
900.295	0.0154430
900.373	0.0154800
900.451	0.0154908
900.530	0.0153685
900.608	0.0153545
900.686	0.0152280
900.764	0.0152335
900.842	0.0152667
900.920	0.0152416
900.998	0.0150571
901.076	0.0151952
901.155	0.0151446
901.233	0.0148422
901.311	0.0150062
901.389	0.0149672
901.467	0.0148887
901.545	0.0149561
901.623	0.0148442
901.701	0.0150796
901.780	0.0149635
901.858	0.0149883
901.936	0.0150358
902.014	0.0148896
902.092	0.0148734
902.170	0.0149013
902.248	0.0149612
902.326	0.0150102
902.405	0.0150367
902.483	0.0151338
902.561	0.0151325
902.639	0.0153483
902.717	0.0152856
902.795	0.0153654
902.873	0.0153748
902.951	0.0153684
903.030	0.0155014
903.108	0.0154533
903.186	0.0154178
903.264	0.0154245
903.342	0.0154867
903.420	0.0154401
903.498	0.0154729
903.576	0.0155696
903.655	0.0156234
903.733	0.0154084
903.811	0.0154163
903.889	0.0154952
903.967	0.0153348
904.045	0.0154865
904.123	0.0154411
904.201	0.0153867
904.280	0.0153925
904.358	0.0153410
904.436	0.0153516
904.514	0.0153458
904.592	0.0151221
904.670	0.0151753
904.748	0.0152656
904.826	0.0151806
904.905	0.0152175
904.983	0.0153309
905.061	0.0151906
905.139	0.0152547
905.217	0.0152815
905.295	0.0152363
905.373	0.0152933
905.451	0.0152921
905.530	0.0152641
905.608	0.0151921
905.686	0.0153997
905.764	0.0153194
905.842	0.0153359
905.920	0.0151954
905.998	0.0150567
906.076	0.0150510
906.155	0.0150701
906.233	0.0151135
906.311	0.0149828
906.389	0.0150945
906.467	0.0150331
906.545	0.0149960
906.623	0.0149017
906.701	0.0150191
906.780	0.0150955
906.858	0.0149906
906.936	0.0151463
907.014	0.0151864
907.092	0.0151098
907.170	0.0151629
907.248	0.0151361
907.326	0.0150932
907.405	0.0151538
907.483	0.0152255
907.561	0.0151956
907.639	0.0151729
907.717	0.0153492
907.795	0.0153761
907.873	0.0151918
907.951	0.0151636
908.030	0.0153674
908.108	0.0154069
908.186	0.0152210
908.264	0.0153427
908.342	0.0153204
908.420	0.0152775
908.498	0.0154327
908.576	0.0153770
908.655	0.0153490
908.733	0.0153141
908.811	0.0152496
908.889	0.0156091
908.967	0.0154942
909.045	0.0153797
909.123	0.0152947
909.201	0.0155608
909.280	0.0155268
909.358	0.0153075
909.436	0.0154646
909.514	0.0154060
909.592	0.0153832
909.670	0.0154940
909.748	0.0153269
909.826	0.0153671
909.905	0.0152548
909.983	0.0153094
910.061	0.0152204
910.139	0.0152034
910.217	0.0151780
910.295	0.0151620
910.373	0.0150930
910.451	0.0150516
910.530	0.0150043
910.608	0.0149580
910.686	0.0148772
910.764	0.0149262
910.842	0.0148933
910.920	0.0149686
910.998	0.0149105
911.076	0.0150451
911.155	0.0149109
911.233	0.0149831
911.311	0.0148968
911.389	0.0148779
911.467	0.0149527
911.545	0.0149937
911.623	0.0149452
911.701	0.0149960
911.780	0.0149033
911.858	0.0151803
911.936	0.0151614
912.014	0.0152122
912.092	0.0153850
912.170	0.0153496
912.248	0.0153033
912.326	0.0155022
912.405	0.0154266
912.483	0.0153889
912.561	0.0154590
912.639	0.0154863
912.717	0.0154607
912.795	0.0155645
912.873	0.0154184
912.951	0.0155289
913.030	0.0154951
913.108	0.0154957
913.186	0.0156462
913.264	0.0156177
913.342	0.0154211
913.420	0.0153834
913.498	0.0152441
913.576	0.0152856
913.655	0.0153950
913.733	0.0152540
913.811	0.0152678
913.889	0.0149787
913.967	0.0150402
914.045	0.0150906
914.123	0.0150217
914.201	0.0150141
914.280	0.0150771
914.358	0.0150135
914.436	0.0150749
914.514	0.0152143
914.592	0.0151970
914.670	0.0152129
914.748	0.0152223
914.826	0.0152566
914.905	0.0152068
914.983	0.0152454
915.061	0.0152674
915.139	0.0152136
915.217	0.0152975
915.295	0.0152917
915.373	0.0153056
915.451	0.0152184
915.530	0.0152420
915.608	0.0151788
915.686	0.0151657
915.764	0.0151831
915.842	0.0151847
915.920	0.0151212
915.998	0.0152357
916.076	0.0151278
916.155	0.0149986
916.233	0.0149484
916.311	0.0150912
916.389	0.0151085
916.467	0.0150542
916.545	0.0151895
916.623	0.0151936
916.701	0.0151225
916.780	0.0151516
916.858	0.0152094
916.936	0.0151855
917.014	0.0152693
917.092	0.0153008
917.170	0.0152424
917.248	0.0152822
917.326	0.0153989
917.405	0.0152976
917.483	0.0151983
917.561	0.0152760
917.639	0.0152950
917.717	0.0152747
917.795	0.0153732
917.873	0.0153175
917.951	0.0153152
918.030	0.0153598
918.108	0.0153623
918.186	0.0153606
918.264	0.0155184
918.342	0.0153815
918.420	0.0153485
918.498	0.0152017
918.576	0.0154005
918.655	0.0153069
918.733	0.0151679
918.811	0.0153104
918.889	0.0154145
918.967	0.0152042
919.045	0.0155229
919.123	0.0154139
919.201	0.0152872
919.280	0.0155444
919.358	0.0154191
919.436	0.0154984
919.514	0.0153923
919.592	0.0153438
919.670	0.0152374
919.748	0.0154961
919.826	0.0154002
919.905	0.0154639
919.983	0.0154414
920.061	0.0153329
920.139	0.0154192
920.217	0.0153999
920.295	0.0153520
920.373	0.0152837
920.451	0.0154334
920.530	0.0154506
920.608	0.0153831
920.686	0.0153285
920.764	0.0153754
920.842	0.0152542
920.920	0.0151678
920.998	0.0153189
921.076	0.0153284
921.155	0.0152807
921.233	0.0153710
921.311	0.0150778
921.389	0.0150381
921.467	0.0152319
921.545	0.0150767
921.623	0.0150345
921.701	0.0150021
921.780	0.0151355
921.858	0.0152180
921.936	0.0149840
922.014	0.0150455
922.092	0.0151281
922.170	0.0150875
922.248	0.0150565
922.326	0.0151644
922.405	0.0151951
922.483	0.0150459
922.561	0.0150345
922.639	0.0151743
922.717	0.0149969
922.795	0.0151229
922.873	0.0151569
922.951	0.0150944
923.030	0.0150948
923.108	0.0152213
923.186	0.0152506
923.264	0.0151617
923.342	0.0154152
923.420	0.0153120
923.498	0.0153574
923.576	0.0153400
923.655	0.0152635
923.733	0.0152258
923.811	0.0153101
923.889	0.0154771
923.967	0.0153493
924.045	0.0153282
924.123	0.0151208
924.201	0.0150629
924.280	0.0151830
924.358	0.0153191
924.436	0.0150804
924.514	0.0151643
924.592	0.0151206
924.670	0.0153505
924.748	0.0151428
924.826	0.0152083
924.905	0.0151675
924.983	0.0151874
925.061	0.0152575
925.139	0.0152280
925.217	0.0152736
925.295	0.0152462
925.373	0.0153094
925.451	0.0153041
925.530	0.0155167
925.608	0.0155025
925.686	0.0154117
925.764	0.0154353
925.842	0.0153923
925.920	0.0156212
925.998	0.0155555
926.076	0.0156068
926.155	0.0153278
926.233	0.0152586
926.311	0.0153791
926.389	0.0153147
926.467	0.0153299
926.545	0.0153391
926.623	0.0152650
926.701	0.0152436
926.780	0.0151749
926.858	0.0150926
926.936	0.0152982
927.014	0.0151741
927.092	0.0150869
927.170	0.0149872
927.248	0.0149222
927.326	0.0149902
927.405	0.0148531
927.483	0.0148092
927.561	0.0148962
927.639	0.0149331
927.717	0.0150253
927.795	0.0151751
927.873	0.0150038
927.951	0.0150443
928.030	0.0150597
928.108	0.0151607
928.186	0.0151593
928.264	0.0152185
928.342	0.0151753
928.420	0.0152608
928.498	0.0151943
928.576	0.0152980
928.655	0.0153036
928.733	0.0152583
928.811	0.0153212
928.889	0.0153827
928.967	0.0153329
929.045	0.0153069
929.123	0.0153322
929.201	0.0153290
929.280	0.0152225
929.358	0.0152803
929.436	0.0151974
929.514	0.0152662
929.592	0.0153616
929.670	0.0150866
929.748	0.0153251
929.826	0.0152624
929.905	0.0152232
929.983	0.0150388
930.061	0.0153945
930.139	0.0152169
930.217	0.0151527
930.295	0.0152276
930.373	0.0151807
930.451	0.0153121
930.530	0.0152539
930.608	0.0153259
930.686	0.0153831
930.764	0.0154073
930.842	0.0153042
930.920	0.0153735
930.998	0.0153942
931.076	0.0153223
931.155	0.0153436
931.233	0.0154320
931.311	0.0154613
931.389	0.0153648
931.467	0.0154427
931.545	0.0154067
931.623	0.0154352
931.701	0.0154871
931.780	0.0154709
931.858	0.0154304
931.936	0.0154012
932.014	0.0153237
932.092	0.0153264
932.170	0.0154145
932.248	0.0154071
932.326	0.0153942
932.405	0.0153091
932.483	0.0152531
932.561	0.0152599
932.639	0.0151764
932.717	0.0150784
932.795	0.0150667
932.873	0.0150974
932.951	0.0152042
933.030	0.0151515
933.108	0.0150610
933.186	0.0151871
933.264	0.0150728
933.342	0.0151276
933.420	0.0149738
933.498	0.0151509
933.576	0.0149596
933.655	0.0149992
933.733	0.0150797
933.811	0.0151180
933.889	0.0151205
933.967	0.0150289
934.045	0.0151967
934.123	0.0151085
934.201	0.0150971
934.280	0.0149831
934.358	0.0152519
934.436	0.0151236
934.514	0.0151621
934.592	0.0150796
934.670	0.0151094
934.748	0.0150691
934.826	0.0150373
934.905	0.0150252
934.983	0.0152336
935.061	0.0150773
935.139	0.0149489
935.217	0.0150358
935.295	0.0150212
935.373	0.0152236
935.451	0.0151535
935.530	0.0150053
935.608	0.0152388
935.686	0.0152022
935.764	0.0151482
935.842	0.0151740
935.920	0.0152805
935.998	0.0152666
936.076	0.0153155
936.155	0.0153398
936.233	0.0154333
936.311	0.0155470
936.389	0.0155070
936.467	0.0154955
936.545	0.0155199
936.623	0.0154829
936.701	0.0155691
936.780	0.0155575
936.858	0.0156245
936.936	0.0154821
937.014	0.0154560
937.092	0.0155284
937.170	0.0155419
937.248	0.0155075
937.326	0.0155688
937.405	0.0153985
937.483	0.0154606
937.561	0.0153602
937.639	0.0153978
937.717	0.0153427
937.795	0.0152827
937.873	0.0153014
937.951	0.0153366
938.030	0.0151189
938.108	0.0152021
938.186	0.0152630
938.264	0.0153030
938.342	0.0151875
938.420	0.0152170
938.498	0.0152164
938.576	0.0151765
938.655	0.0152670
938.733	0.0151213
938.811	0.0151641
938.889	0.0152151
938.967	0.0151855
939.045	0.0150751
939.123	0.0150175
939.201	0.0149771
939.280	0.0150750
939.358	0.0151443
939.436	0.0151657
939.514	0.0151068
939.592	0.0151192
939.670	0.0151031
939.748	0.0150542
939.826	0.0150623
939.905	0.0151395
939.983	0.0151955
940.061	0.0151039
940.139	0.0151765
940.217	0.0152142
940.295	0.0153601
940.373	0.0152971
940.451	0.0153263
940.530	0.0153967
940.608	0.0153012
940.686	0.0153218
940.764	0.0153036
940.842	0.0153692
940.920	0.0153965
940.998	0.0154140
941.076	0.0153428
941.155	0.0153846
941.233	0.0154001
941.311	0.0153367
941.389	0.0153663
941.467	0.0153354
941.545	0.0152237
941.623	0.0152547
941.701	0.0152570
941.780	0.0154350
941.858	0.0155825
941.936	0.0154743
942.014	0.0154800
942.092	0.0154238
942.170	0.0155573
942.248	0.0156428
942.326	0.0156215
942.405	0.0156783
942.483	0.0155693
942.561	0.0155327
942.639	0.0155904
942.717	0.0155125
942.795	0.0155447
942.873	0.0154600
942.951	0.0153980
943.030	0.0155704
943.108	0.0154245
943.186	0.0154568
943.264	0.0154611
943.342	0.0154431
943.420	0.0153729
943.498	0.0153075
943.576	0.0152481
943.655	0.0152753
943.733	0.0151311
943.811	0.0152194
943.889	0.0152454
943.967	0.0152589
944.045	0.0151248
944.123	0.0150732
944.201	0.0152229
944.280	0.0153143
944.358	0.0151611
944.436	0.0151996
944.514	0.0151623
944.592	0.0152078
944.670	0.0150478
944.748	0.0151160
944.826	0.0151867
944.905	0.0150805
944.983	0.0151929
945.061	0.0152361
945.139	0.0151125
945.217	0.0150233
945.295	0.0151158
945.373	0.0150640
945.451	0.0151003
945.530	0.0150844
945.608	0.0150941
945.686	0.0152126
945.764	0.0150449
945.842	0.0150851
945.920	0.0149474
945.998	0.0150449
946.076	0.0150891
946.155	0.0151863
946.233	0.0150047
946.311	0.0151192
946.389	0.0151325
946.467	0.0152163
946.545	0.0154505
946.623	0.0153457
946.701	0.0153977
946.780	0.0154331
946.858	0.0154499
946.936	0.0155233
947.014	0.0155398
947.092	0.0154410
947.170	0.0155872
947.248	0.0156846
947.326	0.0156288
947.405	0.0155992
947.483	0.0155383
947.561	0.0157185
947.639	0.0156786
947.717	0.0156611
947.795	0.0157736
947.873	0.0156526
947.951	0.0156409
948.030	0.0157639
948.108	0.0156042
948.186	0.0156177
948.264	0.0156586
948.342	0.0157063
948.420	0.0155540
948.498	0.0154793
948.576	0.0155551
948.655	0.0154652
948.733	0.0154398
948.811	0.0152538
948.889	0.0151453
948.967	0.0149924
949.045	0.0151811
949.123	0.0151422
949.201	0.0150314
949.280	0.0149123
949.358	0.0148221
949.436	0.0148840
949.514	0.0148465
949.592	0.0147635
949.670	0.0149291
949.748	0.0148024
949.826	0.0148786
949.905	0.0148310
949.983	0.0148139
950.061	0.0149552
950.139	0.0150661
950.217	0.0150980
950.295	0.0151071
950.373	0.0150905
950.451	0.0151495
950.530	0.0150824
950.608	0.0152712
950.686	0.0153014
950.764	0.0152622
950.842	0.0152515
950.920	0.0151118
950.998	0.0152189
951.076	0.0152425
951.155	0.0153076
951.233	0.0151508
951.311	0.0151830
951.389	0.0152499
951.467	0.0152734
951.545	0.0150704
951.623	0.0151478
951.701	0.0152280
951.780	0.0150961
951.858	0.0153430
951.936	0.0153489
952.014	0.0152618
952.092	0.0153423
952.170	0.0152800
952.248	0.0152422
952.326	0.0153113
952.405	0.0153402
952.483	0.0154797
952.561	0.0154533
952.639	0.0153954
952.717	0.0154505
952.795	0.0154939
952.873	0.0154914
952.951	0.0155753
953.030	0.0154102
953.108	0.0155554
953.186	0.0153694
953.264	0.0156177
953.342	0.0155964
953.420	0.0155510
953.498	0.0155611
953.576	0.0155092
953.655	0.0155486
953.733	0.0154887
953.811	0.0155835
953.889	0.0155938
953.967	0.0154301
954.045	0.0154369
954.123	0.0154169
954.201	0.0153883
954.280	0.0153575
954.358	0.0151703
954.436	0.0151003
954.514	0.0150526
954.592	0.0151837
954.670	0.0150612
954.748	0.0150652
954.826	0.0151274
954.905	0.0149915
954.983	0.0148827
955.061	0.0150043
955.139	0.0150363
955.217	0.0151176
955.295	0.0151144
955.373	0.0149476
955.451	0.0149139
955.530	0.0150228
955.608	0.0150353
955.686	0.0150477
955.764	0.0150404
955.842	0.0149693
955.920	0.0152396
955.998	0.0151577
956.076	0.0151537
956.155	0.0149872
956.233	0.0151711
956.311	0.0153044
956.389	0.0151703
956.467	0.0152091
956.545	0.0153135
956.623	0.0153542
956.701	0.0152572
956.780	0.0151693
956.858	0.0152465
956.936	0.0152449
957.014	0.0151284
957.092	0.0151907
957.170	0.0151904
957.248	0.0151418
957.326	0.0151621
957.405	0.0150149
957.483	0.0151836
957.561	0.0152236
957.639	0.0152414
957.717	0.0152423
957.795	0.0152075
957.873	0.0151578
957.951	0.0153347
958.030	0.0152466
958.108	0.0153223
958.186	0.0153468
958.264	0.0153075
958.342	0.0153416
958.420	0.0154600
958.498	0.0155618
958.576	0.0154562
958.655	0.0155018
958.733	0.0154833
958.811	0.0155663
958.889	0.0155524
958.967	0.0154699
959.045	0.0155559
959.123	0.0152925
959.201	0.0154267
959.280	0.0154986
959.358	0.0154678
959.436	0.0154186
959.514	0.0153642
959.592	0.0155353
959.670	0.0153242
959.748	0.0152866
959.826	0.0152990
959.905	0.0153762
