05/17/2022	16:50:08	Ver.	4.1	UNKNOWN
Optical Delay	639.982744	Delta X		0.078125	Sweeps	1	Scan Rate	0/0
Coordinates	Axis 1	NaN	Axis 2	NaN	Axis 3	NaN	Axis 4	NaN	Axis 5	NaN	Axis 6	0.000000
TX Power	0.000000	RX Power	0.000000

639.983	0.0157417
640.061	0.0156786
640.139	0.0156995
640.217	0.0157517
640.295	0.0156804
640.373	0.0156685
640.451	0.0157511
640.530	0.0156204
640.608	0.0157474
640.686	0.0157522
640.764	0.0156158
640.842	0.0156383
640.920	0.0157132
640.998	0.0156983
641.076	0.0158131
641.155	0.0157365
641.233	0.0155724
641.311	0.0155776
641.389	0.0155592
641.467	0.0156216
641.545	0.0155193
641.623	0.0156732
641.701	0.0157286
641.780	0.0157279
641.858	0.0158384
641.936	0.0157642
642.014	0.0156873
642.092	0.0156033
642.170	0.0156428
642.248	0.0157901
642.326	0.0156939
642.405	0.0155915
642.483	0.0157389
642.561	0.0156817
642.639	0.0156625
642.717	0.0156502
642.795	0.0156931
642.873	0.0157026
642.951	0.0155817
643.030	0.0156978
643.108	0.0158442
643.186	0.0157677
643.264	0.0157658
643.342	0.0155524
643.420	0.0157214
643.498	0.0156825
643.576	0.0158750
643.655	0.0158605
643.733	0.0157372
643.811	0.0156155
643.889	0.0156779
643.967	0.0157682
644.045	0.0157832
644.123	0.0157703
644.201	0.0156693
644.280	0.0158668
644.358	0.0157783
644.436	0.0156047
644.514	0.0156737
644.592	0.0157060
644.670	0.0158432
644.748	0.0157086
644.826	0.0156735
644.905	0.0157494
644.983	0.0158587
645.061	0.0157253
645.139	0.0157021
645.217	0.0157839
645.295	0.0158254
645.373	0.0157834
645.451	0.0157374
645.530	0.0157056
645.608	0.0158089
645.686	0.0159094
645.764	0.0158952
645.842	0.0157967
645.920	0.0157851
645.998	0.0157168
646.076	0.0158108
646.155	0.0156973
646.233	0.0156419
646.311	0.0159167
646.389	0.0158308
646.467	0.0157645
646.545	0.0157207
646.623	0.0156001
646.701	0.0158039
646.780	0.0158014
646.858	0.0157478
646.936	0.0157589
647.014	0.0159202
647.092	0.0156898
647.170	0.0157054
647.248	0.0158434
647.326	0.0158842
647.405	0.0157307
647.483	0.0159010
647.561	0.0155954
647.639	0.0157539
647.717	0.0158238
647.795	0.0157869
647.873	0.0159062
647.951	0.0157580
648.030	0.0157642
648.108	0.0158948
648.186	0.0158681
648.264	0.0159439
648.342	0.0157312
648.420	0.0157880
648.498	0.0158403
648.576	0.0157546
648.655	0.0157178
648.733	0.0158305
648.811	0.0158898
648.889	0.0158409
648.967	0.0157773
649.045	0.0156760
649.123	0.0158556
649.201	0.0158439
649.280	0.0158218
649.358	0.0159290
649.436	0.0159867
649.514	0.0158076
649.592	0.0158889
649.670	0.0159555
649.748	0.0159119
649.826	0.0159328
649.905	0.0158143
649.983	0.0158510
650.061	0.0157332
650.139	0.0158560
650.217	0.0159933
650.295	0.0158685
650.373	0.0159659
650.451	0.0158560
650.530	0.0156817
650.608	0.0158451
650.686	0.0159243
650.764	0.0158320
650.842	0.0159999
650.920	0.0158793
650.998	0.0159582
651.076	0.0158989
651.155	0.0158515
651.233	0.0158444
651.311	0.0160690
651.389	0.0158476
651.467	0.0158340
651.545	0.0158730
651.623	0.0159587
651.701	0.0158589
651.780	0.0158046
651.858	0.0158468
651.936	0.0158806
652.014	0.0158291
652.092	0.0159480
652.170	0.0159106
652.248	0.0159530
652.326	0.0159557
652.405	0.0159994
652.483	0.0158715
652.561	0.0158008
652.639	0.0159879
652.717	0.0159958
652.795	0.0158904
652.873	0.0158326
652.951	0.0158649
653.030	0.0157912
653.108	0.0158817
653.186	0.0158853
653.264	0.0159219
653.342	0.0159531
653.420	0.0159509
653.498	0.0158959
653.576	0.0158431
653.655	0.0158698
653.733	0.0160856
653.811	0.0160194
653.889	0.0158817
653.967	0.0158435
654.045	0.0157977
654.123	0.0159518
654.201	0.0159228
654.280	0.0159767
654.358	0.0158833
654.436	0.0159601
654.514	0.0160641
654.592	0.0158785
654.670	0.0160893
654.748	0.0158506
654.826	0.0159341
654.905	0.0159176
654.983	0.0159217
655.061	0.0157504
655.139	0.0159978
655.217	0.0158875
655.295	0.0158890
655.373	0.0159763
655.451	0.0158588
655.530	0.0159464
655.608	0.0159392
655.686	0.0159601
655.764	0.0158560
655.842	0.0159954
655.920	0.0159231
655.998	0.0159103
656.076	0.0159002
656.155	0.0158673
656.233	0.0159382
656.311	0.0158247
656.389	0.0158860
656.467	0.0159518
656.545	0.0159494
656.623	0.0157681
656.701	0.0157533
656.780	0.0158805
656.858	0.0158501
656.936	0.0159074
657.014	0.0159152
657.092	0.0158510
657.170	0.0159443
657.248	0.0160059
657.326	0.0157929
657.405	0.0158076
657.483	0.0158234
657.561	0.0158138
657.639	0.0157716
657.717	0.0158358
657.795	0.0157909
657.873	0.0158122
657.951	0.0159142
658.030	0.0157694
658.108	0.0158598
658.186	0.0158327
658.264	0.0157328
658.342	0.0158281
658.420	0.0159998
658.498	0.0158424
658.576	0.0159173
658.655	0.0157954
658.733	0.0157484
658.811	0.0157401
658.889	0.0156515
658.967	0.0156956
659.045	0.0157729
659.123	0.0159956
659.201	0.0158571
659.280	0.0157484
659.358	0.0157066
659.436	0.0158297
659.514	0.0158800
659.592	0.0158119
659.670	0.0158401
659.748	0.0158192
659.826	0.0160055
659.905	0.0159892
659.983	0.0159292
660.061	0.0157442
660.139	0.0158022
660.217	0.0157880
660.295	0.0156559
660.373	0.0155944
660.451	0.0156882
660.530	0.0156899
660.608	0.0156522
660.686	0.0157478
660.764	0.0154794
660.842	0.0155812
660.920	0.0155173
660.998	0.0156193
661.076	0.0156106
661.155	0.0155527
661.233	0.0156511
661.311	0.0155817
661.389	0.0155040
661.467	0.0157722
661.545	0.0156767
661.623	0.0157134
661.701	0.0158978
661.780	0.0158026
661.858	0.0158810
661.936	0.0160035
662.014	0.0160384
662.092	0.0159448
662.170	0.0159583
662.248	0.0159119
662.326	0.0160087
662.405	0.0159200
662.483	0.0159231
662.561	0.0157435
662.639	0.0157384
662.717	0.0156046
662.795	0.0155743
662.873	0.0155193
662.951	0.0153326
663.030	0.0154352
663.108	0.0151809
663.186	0.0152710
663.264	0.0152258
663.342	0.0151823
663.420	0.0151678
663.498	0.0152400
663.576	0.0152313
663.655	0.0153519
663.733	0.0155326
663.811	0.0156084
663.889	0.0157645
663.967	0.0158366
664.045	0.0159843
664.123	0.0159806
664.201	0.0160351
664.280	0.0161977
664.358	0.0163065
664.436	0.0161744
664.514	0.0163063
664.592	0.0162202
664.670	0.0161504
664.748	0.0160895
664.826	0.0159599
664.905	0.0157024
664.983	0.0157843
665.061	0.0154250
665.139	0.0153493
665.217	0.0154081
665.295	0.0151732
665.373	0.0151022
665.451	0.0150627
665.530	0.0151398
665.608	0.0149897
665.686	0.0151188
665.764	0.0151699
665.842	0.0151948
665.920	0.0153167
665.998	0.0153350
666.076	0.0156374
666.155	0.0157574
666.233	0.0158648
666.311	0.0159184
666.389	0.0160717
666.467	0.0163064
666.545	0.0162519
666.623	0.0163742
666.701	0.0163974
666.780	0.0162375
666.858	0.0163477
666.936	0.0163505
667.014	0.0161960
667.092	0.0160165
667.170	0.0160983
667.248	0.0159535
667.326	0.0157950
667.405	0.0156087
667.483	0.0154958
667.561	0.0153135
667.639	0.0152330
667.717	0.0151494
667.795	0.0152293
667.873	0.0152565
667.951	0.0152604
668.030	0.0151832
668.108	0.0151408
668.186	0.0152706
668.264	0.0153485
668.342	0.0154551
668.420	0.0156237
668.498	0.0157095
668.576	0.0158138
668.655	0.0158180
668.733	0.0159183
668.811	0.0160865
668.889	0.0162242
668.967	0.0162696
669.045	0.0162072
669.123	0.0162298
669.201	0.0162019
669.280	0.0162090
669.358	0.0160815
669.436	0.0161223
669.514	0.0159626
669.592	0.0158776
669.670	0.0157648
669.748	0.0157985
669.826	0.0157407
669.905	0.0155661
669.983	0.0155634
670.061	0.0157225
670.139	0.0156245
670.217	0.0155948
670.295	0.0155587
670.373	0.0154737
670.451	0.0155682
670.530	0.0155196
670.608	0.0155890
670.686	0.0155899
670.764	0.0155495
670.842	0.0156163
670.920	0.0156844
670.998	0.0156940
671.076	0.0157302
671.155	0.0158067
671.233	0.0158240
671.311	0.0160652
671.389	0.0160389
671.467	0.0160348
671.545	0.0161046
671.623	0.0160102
671.701	0.0159959
671.780	0.0160615
671.858	0.0160816
671.936	0.0160394
672.014	0.0158961
672.092	0.0161012
672.170	0.0161265
672.248	0.0161044
672.326	0.0160575
672.405	0.0160461
672.483	0.0160377
672.561	0.0158990
672.639	0.0159431
672.717	0.0158271
672.795	0.0156602
672.873	0.0157784
672.951	0.0156620
673.030	0.0154710
673.108	0.0154514
673.186	0.0154872
673.264	0.0153593
673.342	0.0152784
673.420	0.0155457
673.498	0.0154713
673.576	0.0156665
673.655	0.0156853
673.733	0.0157991
673.811	0.0158688
673.889	0.0159112
673.967	0.0159479
674.045	0.0161098
674.123	0.0161790
674.201	0.0162824
674.280	0.0162395
674.358	0.0162753
674.436	0.0162785
674.514	0.0162892
674.592	0.0164051
674.670	0.0162987
674.748	0.0160960
674.826	0.0160732
674.905	0.0159821
674.983	0.0160568
675.061	0.0159430
675.139	0.0157990
675.217	0.0156738
675.295	0.0155831
675.373	0.0154755
675.451	0.0156237
675.530	0.0154549
675.608	0.0154213
675.686	0.0155142
675.764	0.0154260
675.842	0.0152419
675.920	0.0153746
675.998	0.0155612
676.076	0.0155787
676.155	0.0157194
676.233	0.0156747
676.311	0.0158560
676.389	0.0159623
676.467	0.0158469
676.545	0.0158310
676.623	0.0160755
676.701	0.0161080
676.780	0.0158917
676.858	0.0160287
676.936	0.0160602
677.014	0.0159686
677.092	0.0159126
677.170	0.0158995
677.248	0.0159863
677.326	0.0159998
677.405	0.0158942
677.483	0.0158311
677.561	0.0157311
677.639	0.0156258
677.717	0.0158203
677.795	0.0155951
677.873	0.0156458
677.951	0.0155026
678.030	0.0155459
678.108	0.0157285
678.186	0.0156660
678.264	0.0157596
678.342	0.0158257
678.420	0.0157808
678.498	0.0157297
678.576	0.0158082
678.655	0.0158049
678.733	0.0158432
678.811	0.0158170
678.889	0.0158788
678.967	0.0159756
679.045	0.0159949
679.123	0.0158871
679.201	0.0156940
679.280	0.0158080
679.358	0.0157117
679.436	0.0155170
679.514	0.0154583
679.592	0.0154282
679.670	0.0152133
679.748	0.0151617
679.826	0.0151908
679.905	0.0151656
679.983	0.0151132
680.061	0.0152946
680.139	0.0153863
680.217	0.0153074
680.295	0.0154498
680.373	0.0156580
680.451	0.0157984
680.530	0.0159983
680.608	0.0161459
680.686	0.0161754
680.764	0.0164926
680.842	0.0163559
680.920	0.0164463
680.998	0.0164528
681.076	0.0166145
681.155	0.0166248
681.233	0.0166218
681.311	0.0166315
681.389	0.0166692
681.467	0.0166018
681.545	0.0166870
681.623	0.0166412
681.701	0.0165395
681.780	0.0162718
681.858	0.0161774
681.936	0.0160373
682.014	0.0159002
682.092	0.0158010
682.170	0.0157401
682.248	0.0155646
682.326	0.0156813
682.405	0.0155543
682.483	0.0155000
682.561	0.0155823
682.639	0.0156462
682.717	0.0156619
682.795	0.0156868
682.873	0.0156850
682.951	0.0154073
683.030	0.0157118
683.108	0.0156944
683.186	0.0158128
683.264	0.0157960
683.342	0.0156656
683.420	0.0157248
683.498	0.0158440
683.576	0.0159113
683.655	0.0159365
683.733	0.0159337
683.811	0.0159748
683.889	0.0159338
683.967	0.0156609
684.045	0.0156426
684.123	0.0155920
684.201	0.0155579
684.280	0.0154259
684.358	0.0153906
684.436	0.0153784
684.514	0.0153864
684.592	0.0151334
684.670	0.0151827
684.748	0.0150743
684.826	0.0151387
684.905	0.0151453
684.983	0.0151418
685.061	0.0150768
685.139	0.0150571
685.217	0.0151983
685.295	0.0152038
685.373	0.0152861
685.451	0.0154192
685.530	0.0153146
685.608	0.0154793
685.686	0.0156989
685.764	0.0155985
685.842	0.0156746
685.920	0.0156258
685.998	0.0155442
686.076	0.0155738
686.155	0.0157214
686.233	0.0156654
686.311	0.0158512
686.389	0.0156701
686.467	0.0157531
686.545	0.0158577
686.623	0.0158238
686.701	0.0157295
686.780	0.0159287
686.858	0.0158595
686.936	0.0158839
687.014	0.0157100
687.092	0.0157871
687.170	0.0159869
687.248	0.0157632
687.326	0.0158359
687.405	0.0157878
687.483	0.0158434
687.561	0.0155775
687.639	0.0156267
687.717	0.0155864
687.795	0.0157926
687.873	0.0158319
687.951	0.0158555
688.030	0.0159201
688.108	0.0159650
688.186	0.0159537
688.264	0.0160002
688.342	0.0160928
688.420	0.0161050
688.498	0.0163152
688.576	0.0162505
688.655	0.0163525
688.733	0.0164485
688.811	0.0164542
688.889	0.0164707
688.967	0.0164679
689.045	0.0163973
689.123	0.0163754
689.201	0.0161746
689.280	0.0160945
689.358	0.0157938
689.436	0.0157279
689.514	0.0153526
689.592	0.0152381
689.670	0.0151658
689.748	0.0151032
689.826	0.0149275
689.905	0.0146063
689.983	0.0147260
690.061	0.0149070
690.139	0.0148699
690.217	0.0151048
690.295	0.0150655
690.373	0.0152157
690.451	0.0155876
690.530	0.0157653
690.608	0.0159179
690.686	0.0162558
690.764	0.0162403
690.842	0.0163033
690.920	0.0165823
690.998	0.0166365
691.076	0.0164055
691.155	0.0164171
691.233	0.0164433
691.311	0.0164991
691.389	0.0164044
691.467	0.0162360
691.545	0.0162132
691.623	0.0160116
691.701	0.0161658
691.780	0.0160125
691.858	0.0159473
691.936	0.0157037
692.014	0.0156081
692.092	0.0155663
692.170	0.0156715
692.248	0.0156039
692.326	0.0156941
692.405	0.0157432
692.483	0.0158024
692.561	0.0157669
692.639	0.0159323
692.717	0.0159351
692.795	0.0159121
692.873	0.0160163
692.951	0.0159641
693.030	0.0159947
693.108	0.0160480
693.186	0.0160300
693.264	0.0162091
693.342	0.0161751
693.420	0.0160365
693.498	0.0159068
693.576	0.0158829
693.655	0.0159370
693.733	0.0156893
693.811	0.0157761
693.889	0.0155319
693.967	0.0153745
694.045	0.0154825
694.123	0.0153005
694.201	0.0150436
694.280	0.0150491
694.358	0.0151486
694.436	0.0148870
694.514	0.0149823
694.592	0.0150141
694.670	0.0149890
694.748	0.0147614
694.826	0.0146214
694.905	0.0146010
694.983	0.0145409
695.061	0.0144296
695.139	0.0143937
695.217	0.0145679
695.295	0.0144072
695.373	0.0144862
695.451	0.0146598
695.530	0.0149245
695.608	0.0151910
695.686	0.0152754
695.764	0.0156602
695.842	0.0159701
695.920	0.0161296
695.998	0.0164084
696.076	0.0164511
696.155	0.0166443
696.233	0.0167029
696.311	0.0169348
696.389	0.0168477
696.467	0.0167368
696.545	0.0167773
696.623	0.0168075
696.701	0.0166758
696.780	0.0165676
696.858	0.0163033
696.936	0.0163104
697.014	0.0163210
697.092	0.0160343
697.170	0.0158280
697.248	0.0157143
697.326	0.0157700
697.405	0.0157072
697.483	0.0154077
697.561	0.0154861
697.639	0.0153343
697.717	0.0153091
697.795	0.0154044
697.873	0.0154195
697.951	0.0154595
698.030	0.0155631
698.108	0.0156796
698.186	0.0157592
698.264	0.0156736
698.342	0.0157789
698.420	0.0159725
698.498	0.0161405
698.576	0.0164301
698.655	0.0164940
698.733	0.0164924
698.811	0.0167281
698.889	0.0169064
698.967	0.0169704
699.045	0.0170677
699.123	0.0170282
699.201	0.0170961
699.280	0.0173609
699.358	0.0173592
699.436	0.0171816
699.514	0.0171721
699.592	0.0171986
699.670	0.0169745
699.748	0.0169149
699.826	0.0169102
699.905	0.0165742
699.983	0.0163852
700.061	0.0164519
700.139	0.0163142
700.217	0.0160268
700.295	0.0160189
700.373	0.0158893
700.451	0.0157275
700.530	0.0155431
700.608	0.0151952
700.686	0.0149438
700.764	0.0145823
700.842	0.0143185
700.920	0.0141183
700.998	0.0139093
701.076	0.0136919
701.155	0.0136517
701.233	0.0134296
701.311	0.0133942
701.389	0.0134454
701.467	0.0132687
701.545	0.0134984
701.623	0.0135680
701.701	0.0136185
701.780	0.0137863
701.858	0.0140550
701.936	0.0142233
702.014	0.0143515
702.092	0.0146378
702.170	0.0148389
702.248	0.0150189
702.326	0.0152032
702.405	0.0153512
702.483	0.0154900
702.561	0.0155842
702.639	0.0156411
702.717	0.0160101
702.795	0.0162003
702.873	0.0161968
702.951	0.0163834
703.030	0.0168096
703.108	0.0169320
703.186	0.0171347
703.264	0.0173321
703.342	0.0175546
703.420	0.0177222
703.498	0.0178595
703.576	0.0182063
703.655	0.0181013
703.733	0.0181460
703.811	0.0181170
703.889	0.0180807
703.967	0.0182072
704.045	0.0180666
704.123	0.0178545
704.201	0.0177024
704.280	0.0174891
704.358	0.0172779
704.436	0.0171893
704.514	0.0169742
704.592	0.0167854
704.670	0.0166331
704.748	0.0164573
704.826	0.0161765
704.905	0.0160239
704.983	0.0157768
705.061	0.0155576
705.139	0.0155767
705.217	0.0155321
705.295	0.0155045
705.373	0.0153283
705.451	0.0151868
705.530	0.0152988
705.608	0.0154293
705.686	0.0153681
705.764	0.0154287
705.842	0.0155112
705.920	0.0155394
705.998	0.0154914
706.076	0.0155800
706.155	0.0155426
706.233	0.0155614
706.311	0.0154636
706.389	0.0153545
706.467	0.0151444
706.545	0.0149342
706.623	0.0147839
706.701	0.0146183
706.780	0.0143140
706.858	0.0140498
706.936	0.0137155
707.014	0.0134028
707.092	0.0132552
707.170	0.0130195
707.248	0.0129999
707.326	0.0128191
707.405	0.0125258
707.483	0.0124585
707.561	0.0125094
707.639	0.0125273
707.717	0.0125189
707.795	0.0129330
707.873	0.0132842
707.951	0.0136234
708.030	0.0138558
708.108	0.0144529
708.186	0.0150140
708.264	0.0155725
708.342	0.0159998
708.420	0.0163309
708.498	0.0169279
708.576	0.0173854
708.655	0.0176733
708.733	0.0179514
708.811	0.0181219
708.889	0.0184818
708.967	0.0187943
709.045	0.0188066
709.123	0.0189106
709.201	0.0189201
709.280	0.0188607
709.358	0.0187625
709.436	0.0188065
709.514	0.0186337
709.592	0.0184717
709.670	0.0181902
709.748	0.0180062
709.826	0.0178854
709.905	0.0175844
709.983	0.0175542
710.061	0.0175420
710.139	0.0171115
710.217	0.0170410
710.295	0.0168141
710.373	0.0167161
710.451	0.0166226
710.530	0.0163966
710.608	0.0161192
710.686	0.0160056
710.764	0.0157780
710.842	0.0156445
710.920	0.0153907
710.998	0.0153038
711.076	0.0150545
711.155	0.0150992
711.233	0.0148335
711.311	0.0146942
711.389	0.0145063
711.467	0.0144726
711.545	0.0144508
711.623	0.0143571
711.701	0.0142881
711.780	0.0142860
711.858	0.0143399
711.936	0.0144529
712.014	0.0146223
712.092	0.0147692
712.170	0.0149444
712.248	0.0150233
712.326	0.0153869
712.405	0.0156167
712.483	0.0157219
712.561	0.0157365
712.639	0.0159077
712.717	0.0159866
712.795	0.0160378
712.873	0.0160252
712.951	0.0159617
713.030	0.0157622
713.108	0.0157142
713.186	0.0154901
713.264	0.0151823
713.342	0.0150326
713.420	0.0147404
713.498	0.0145372
713.576	0.0142126
713.655	0.0140473
713.733	0.0138896
713.811	0.0135732
713.889	0.0134055
713.967	0.0134014
714.045	0.0131993
714.123	0.0131797
714.201	0.0132944
714.280	0.0132880
714.358	0.0134435
714.436	0.0137542
714.514	0.0138419
714.592	0.0142212
714.670	0.0146155
714.748	0.0149377
714.826	0.0152924
714.905	0.0158900
714.983	0.0161022
715.061	0.0165890
715.139	0.0170787
715.217	0.0172466
715.295	0.0174133
715.373	0.0177062
715.451	0.0181682
715.530	0.0184956
715.608	0.0187002
715.686	0.0187762
715.764	0.0189275
715.842	0.0190316
715.920	0.0190445
715.998	0.0189851
716.076	0.0188634
716.155	0.0187571
716.233	0.0187920
716.311	0.0185033
716.389	0.0182419
716.467	0.0179707
716.545	0.0175668
716.623	0.0174448
716.701	0.0171299
716.780	0.0169441
716.858	0.0166805
716.936	0.0166509
717.014	0.0163887
717.092	0.0162139
717.170	0.0162780
717.248	0.0162994
717.326	0.0162308
717.405	0.0161443
717.483	0.0161377
717.561	0.0159932
717.639	0.0160423
717.717	0.0158237
717.795	0.0154574
717.873	0.0154417
717.951	0.0153851
718.030	0.0151140
718.108	0.0149354
718.186	0.0147618
718.264	0.0144895
718.342	0.0141795
718.420	0.0139501
718.498	0.0137859
718.576	0.0136101
718.655	0.0134814
718.733	0.0132666
718.811	0.0135077
718.889	0.0132439
718.967	0.0133316
719.045	0.0134924
719.123	0.0134955
719.201	0.0136869
719.280	0.0140266
719.358	0.0141329
719.436	0.0145690
719.514	0.0147594
719.592	0.0150720
719.670	0.0151877
719.748	0.0152638
719.826	0.0154913
719.905	0.0157251
719.983	0.0155962
720.061	0.0157087
720.139	0.0157259
720.217	0.0156661
720.295	0.0156655
720.373	0.0155645
720.451	0.0153757
720.530	0.0152802
720.608	0.0150581
720.686	0.0150308
720.764	0.0151266
720.842	0.0149344
720.920	0.0150005
720.998	0.0148193
721.076	0.0148608
721.155	0.0150481
721.233	0.0150593
721.311	0.0151904
721.389	0.0153771
721.467	0.0157080
721.545	0.0158348
721.623	0.0160826
721.701	0.0162416
721.780	0.0165885
721.858	0.0168746
721.936	0.0172430
722.014	0.0174487
722.092	0.0176752
722.170	0.0177795
722.248	0.0180737
722.326	0.0183643
722.405	0.0184182
722.483	0.0183640
722.561	0.0184364
722.639	0.0183827
722.717	0.0182674
722.795	0.0182614
722.873	0.0180613
722.951	0.0177081
723.030	0.0176662
723.108	0.0173866
723.186	0.0171491
723.264	0.0170026
723.342	0.0168390
723.420	0.0167223
723.498	0.0165415
723.576	0.0165269
723.655	0.0164526
723.733	0.0162498
723.811	0.0163553
723.889	0.0163651
723.967	0.0165482
724.045	0.0164769
724.123	0.0164897
724.201	0.0166302
724.280	0.0165953
724.358	0.0165209
724.436	0.0165212
724.514	0.0164168
724.592	0.0162019
724.670	0.0159331
724.748	0.0157386
724.826	0.0154160
724.905	0.0150062
724.983	0.0144010
725.061	0.0142220
725.139	0.0138902
725.217	0.0136898
725.295	0.0131879
725.373	0.0128552
725.451	0.0126019
725.530	0.0124479
725.608	0.0124239
725.686	0.0123374
725.764	0.0123618
725.842	0.0124670
725.920	0.0123856
725.998	0.0126985
726.076	0.0129018
726.155	0.0132623
726.233	0.0135979
726.311	0.0139160
726.389	0.0143349
726.467	0.0146205
726.545	0.0151649
726.623	0.0154417
726.701	0.0155379
726.780	0.0160132
726.858	0.0162936
726.936	0.0166445
727.014	0.0166668
727.092	0.0169874
727.170	0.0169691
727.248	0.0169425
727.326	0.0169938
727.405	0.0170115
727.483	0.0169522
727.561	0.0168928
727.639	0.0166196
727.717	0.0165891
727.795	0.0164486
727.873	0.0162498
727.951	0.0160865
728.030	0.0159121
728.108	0.0157661
728.186	0.0156546
728.264	0.0155923
728.342	0.0156115
728.420	0.0155827
728.498	0.0157222
728.576	0.0159377
728.655	0.0160545
728.733	0.0161007
728.811	0.0165198
728.889	0.0167428
728.967	0.0169501
729.045	0.0173737
729.123	0.0173327
729.201	0.0176622
729.280	0.0178609
729.358	0.0179947
729.436	0.0181293
729.514	0.0180338
729.592	0.0180758
729.670	0.0179582
729.748	0.0178225
729.826	0.0176066
729.905	0.0173481
729.983	0.0173644
730.061	0.0170371
730.139	0.0167625
730.217	0.0165387
730.295	0.0163576
730.373	0.0165450
730.451	0.0164031
730.530	0.0160721
730.608	0.0161104
730.686	0.0161128
730.764	0.0159570
730.842	0.0160389
730.920	0.0160555
730.998	0.0160131
731.076	0.0160947
731.155	0.0160375
731.233	0.0160158
731.311	0.0158872
731.389	0.0157044
731.467	0.0156882
731.545	0.0154202
731.623	0.0154012
731.701	0.0150767
731.780	0.0149396
731.858	0.0146105
731.936	0.0145290
732.014	0.0143835
732.092	0.0139442
732.170	0.0137621
732.248	0.0135944
732.326	0.0134112
732.405	0.0131709
732.483	0.0131148
732.561	0.0129969
732.639	0.0130627
732.717	0.0129327
732.795	0.0130805
732.873	0.0131735
732.951	0.0132857
733.030	0.0135705
733.108	0.0136716
733.186	0.0138551
733.264	0.0143044
733.342	0.0146236
733.420	0.0147646
733.498	0.0152635
733.576	0.0156003
733.655	0.0158989
733.733	0.0161456
733.811	0.0164194
733.889	0.0168676
733.967	0.0170274
734.045	0.0172814
734.123	0.0173473
734.201	0.0176759
734.280	0.0177139
734.358	0.0176724
734.436	0.0176350
734.514	0.0176038
734.592	0.0172334
734.670	0.0172688
734.748	0.0171234
734.826	0.0169576
734.905	0.0165967
734.983	0.0164850
735.061	0.0164333
735.139	0.0161393
735.217	0.0160544
735.295	0.0159473
735.373	0.0160381
735.451	0.0158144
735.530	0.0159145
735.608	0.0159591
735.686	0.0160569
735.764	0.0159530
735.842	0.0160946
735.920	0.0162992
735.998	0.0164362
736.076	0.0165411
736.155	0.0166195
736.233	0.0166667
736.311	0.0168554
736.389	0.0169427
736.467	0.0168973
736.545	0.0168140
736.623	0.0167879
736.701	0.0168577
736.780	0.0166923
736.858	0.0165436
736.936	0.0164982
737.014	0.0163141
737.092	0.0162440
737.170	0.0160062
737.248	0.0160146
737.326	0.0157903
737.405	0.0157825
737.483	0.0157964
737.561	0.0157001
737.639	0.0157200
737.717	0.0157493
737.795	0.0158926
737.873	0.0156140
737.951	0.0157922
738.030	0.0158369
738.108	0.0158746
738.186	0.0159866
738.264	0.0160178
738.342	0.0160470
738.420	0.0161278
738.498	0.0160774
738.576	0.0159566
738.655	0.0159784
738.733	0.0158415
738.811	0.0157538
738.889	0.0155048
738.967	0.0154388
739.045	0.0152413
739.123	0.0151737
739.201	0.0148836
739.280	0.0146313
739.358	0.0144933
739.436	0.0141353
739.514	0.0139031
739.592	0.0137025
739.670	0.0138200
739.748	0.0137286
739.826	0.0136194
739.905	0.0135695
739.983	0.0136900
740.061	0.0136917
740.139	0.0138921
740.217	0.0139443
740.295	0.0143378
740.373	0.0144389
740.451	0.0146705
740.530	0.0150375
740.608	0.0153244
740.686	0.0156118
740.764	0.0158492
740.842	0.0160988
740.920	0.0163248
740.998	0.0166569
741.076	0.0167244
741.155	0.0168799
741.233	0.0171219
741.311	0.0171381
741.389	0.0172523
741.467	0.0170848
741.545	0.0169861
741.623	0.0170924
741.701	0.0169234
741.780	0.0167466
741.858	0.0165952
741.936	0.0167154
742.014	0.0166168
742.092	0.0163876
742.170	0.0163338
742.248	0.0161937
742.326	0.0160333
742.405	0.0159315
742.483	0.0158451
742.561	0.0156642
742.639	0.0156667
742.717	0.0156489
742.795	0.0157400
742.873	0.0156999
742.951	0.0157545
743.030	0.0158404
743.108	0.0158882
743.186	0.0161088
743.264	0.0160462
743.342	0.0161794
743.420	0.0162148
743.498	0.0163696
743.576	0.0166572
743.655	0.0165561
743.733	0.0165453
743.811	0.0166470
743.889	0.0165113
743.967	0.0165696
744.045	0.0163747
744.123	0.0161639
744.201	0.0164156
744.280	0.0162988
744.358	0.0160651
744.436	0.0158620
744.514	0.0157150
744.592	0.0156074
744.670	0.0157366
744.748	0.0157333
744.826	0.0157983
744.905	0.0157905
744.983	0.0159326
745.061	0.0160279
745.139	0.0159052
745.217	0.0160747
745.295	0.0161723
745.373	0.0159499
745.451	0.0160037
745.530	0.0160878
745.608	0.0158651
745.686	0.0158517
745.764	0.0157973
745.842	0.0155226
745.920	0.0153657
745.998	0.0153768
746.076	0.0152693
746.155	0.0150531
746.233	0.0149552
746.311	0.0148209
746.389	0.0148634
746.467	0.0147466
746.545	0.0146316
746.623	0.0146838
746.701	0.0146400
746.780	0.0146485
746.858	0.0147591
746.936	0.0147808
747.014	0.0147992
747.092	0.0149014
747.170	0.0149495
747.248	0.0150878
747.326	0.0151012
747.405	0.0151858
747.483	0.0153281
747.561	0.0152477
747.639	0.0154282
747.717	0.0155371
747.795	0.0156425
747.873	0.0157160
747.951	0.0157542
748.030	0.0158135
748.108	0.0158790
748.186	0.0161135
748.264	0.0160899
748.342	0.0160934
748.420	0.0163087
748.498	0.0166434
748.576	0.0166708
748.655	0.0165796
748.733	0.0167844
748.811	0.0168790
748.889	0.0170050
748.967	0.0168690
749.045	0.0169099
749.123	0.0166873
749.201	0.0166183
749.280	0.0165736
749.358	0.0164717
749.436	0.0163700
749.514	0.0162291
749.592	0.0160211
749.670	0.0158916
749.748	0.0157963
749.826	0.0155981
749.905	0.0155044
749.983	0.0153633
750.061	0.0153054
750.139	0.0152084
750.217	0.0152772
750.295	0.0152824
750.373	0.0153458
750.451	0.0153940
750.530	0.0154652
750.608	0.0155698
750.686	0.0156722
750.764	0.0158890
750.842	0.0159060
750.920	0.0160947
750.998	0.0162437
751.076	0.0160198
751.155	0.0161568
751.233	0.0163189
751.311	0.0164897
751.389	0.0165219
751.467	0.0164967
751.545	0.0164515
751.623	0.0165018
751.701	0.0165665
751.780	0.0165536
751.858	0.0165679
751.936	0.0166455
752.014	0.0164331
752.092	0.0165754
752.170	0.0166183
752.248	0.0165545
752.326	0.0166309
752.405	0.0165881
752.483	0.0164719
752.561	0.0164836
752.639	0.0164127
752.717	0.0162964
752.795	0.0163921
752.873	0.0163213
752.951	0.0160577
753.030	0.0159582
753.108	0.0156680
753.186	0.0155444
753.264	0.0153633
753.342	0.0154007
753.420	0.0151183
753.498	0.0149155
753.576	0.0148546
753.655	0.0147955
753.733	0.0147137
753.811	0.0147856
753.889	0.0146928
753.967	0.0146992
754.045	0.0147675
754.123	0.0147966
754.201	0.0148478
754.280	0.0149860
754.358	0.0152488
754.436	0.0150762
754.514	0.0153181
754.592	0.0152882
754.670	0.0152634
754.748	0.0154363
754.826	0.0154586
754.905	0.0153766
754.983	0.0153923
755.061	0.0153059
755.139	0.0154182
755.217	0.0154871
755.295	0.0154424
755.373	0.0155143
755.451	0.0157217
755.530	0.0157230
755.608	0.0157667
755.686	0.0159700
755.764	0.0158603
755.842	0.0160420
755.920	0.0162595
755.998	0.0162095
756.076	0.0162415
756.155	0.0164301
756.233	0.0165405
756.311	0.0165923
756.389	0.0166063
756.467	0.0165920
756.545	0.0165829
756.623	0.0165810
756.701	0.0164809
756.780	0.0163935
756.858	0.0164005
756.936	0.0162801
757.014	0.0160486
757.092	0.0160239
757.170	0.0158720
757.248	0.0156158
757.326	0.0155197
757.405	0.0155614
757.483	0.0153876
757.561	0.0152744
757.639	0.0152908
757.717	0.0154027
757.795	0.0153928
757.873	0.0153735
757.951	0.0155535
758.030	0.0155379
758.108	0.0156645
758.186	0.0158330
758.264	0.0158510
758.342	0.0159277
758.420	0.0160207
758.498	0.0160052
758.576	0.0161917
758.655	0.0163122
758.733	0.0162458
758.811	0.0163736
758.889	0.0163817
758.967	0.0163779
759.045	0.0165854
759.123	0.0164172
759.201	0.0164256
759.280	0.0165218
759.358	0.0166216
759.436	0.0166393
759.514	0.0165120
759.592	0.0165067
759.670	0.0165980
759.748	0.0164468
759.826	0.0164233
759.905	0.0164458
759.983	0.0162259
760.061	0.0161140
760.139	0.0160847
760.217	0.0159130
760.295	0.0157827
760.373	0.0156409
760.451	0.0155816
760.530	0.0155650
760.608	0.0153989
760.686	0.0152362
760.764	0.0153016
760.842	0.0150639
760.920	0.0150036
760.998	0.0150859
761.076	0.0150374
761.155	0.0150510
761.233	0.0149333
761.311	0.0150822
761.389	0.0151124
761.467	0.0150305
761.545	0.0151228
761.623	0.0151421
761.701	0.0151611
761.780	0.0152557
761.858	0.0152647
761.936	0.0151675
762.014	0.0154392
762.092	0.0155544
762.170	0.0153168
762.248	0.0155089
762.326	0.0155109
762.405	0.0154145
762.483	0.0156555
762.561	0.0156433
762.639	0.0155064
762.717	0.0157538
762.795	0.0156960
762.873	0.0156361
762.951	0.0156822
763.030	0.0157404
763.108	0.0156384
763.186	0.0156096
763.264	0.0156817
763.342	0.0158118
763.420	0.0157152
763.498	0.0158398
763.576	0.0157081
763.655	0.0157912
763.733	0.0158248
763.811	0.0159663
763.889	0.0159399
763.967	0.0159007
764.045	0.0157829
764.123	0.0159903
764.201	0.0158907
764.280	0.0157725
764.358	0.0157931
764.436	0.0158108
764.514	0.0159112
764.592	0.0156258
764.670	0.0157764
764.748	0.0158081
764.826	0.0157494
764.905	0.0156797
764.983	0.0156322
765.061	0.0156984
765.139	0.0156887
765.217	0.0156902
765.295	0.0156919
765.373	0.0158441
765.451	0.0157735
765.530	0.0158200
765.608	0.0158945
765.686	0.0159161
765.764	0.0159588
765.842	0.0160666
765.920	0.0161353
765.998	0.0161581
766.076	0.0161739
766.155	0.0162069
766.233	0.0160778
766.311	0.0162395
766.389	0.0162012
766.467	0.0162664
766.545	0.0163367
766.623	0.0161507
766.701	0.0161867
766.780	0.0162476
766.858	0.0161993
766.936	0.0163103
767.014	0.0163694
767.092	0.0161486
767.170	0.0161549
767.248	0.0161372
767.326	0.0160501
767.405	0.0159822
767.483	0.0159297
767.561	0.0159470
767.639	0.0158916
767.717	0.0158176
767.795	0.0156621
767.873	0.0155293
767.951	0.0156261
768.030	0.0154949
768.108	0.0155151
768.186	0.0152822
768.264	0.0152734
768.342	0.0152970
768.420	0.0152694
768.498	0.0152654
768.576	0.0153649
768.655	0.0153596
768.733	0.0152348
768.811	0.0154337
768.889	0.0153931
768.967	0.0152670
769.045	0.0154119
769.123	0.0154916
769.201	0.0155906
769.280	0.0153900
769.358	0.0154749
769.436	0.0156128
769.514	0.0154053
769.592	0.0153346
769.670	0.0154371
769.748	0.0153752
769.826	0.0154102
769.905	0.0153452
769.983	0.0155455
770.061	0.0154562
770.139	0.0153574
770.217	0.0155233
770.295	0.0156184
770.373	0.0156261
770.451	0.0156263
770.530	0.0156561
770.608	0.0157188
770.686	0.0159279
770.764	0.0158189
770.842	0.0157413
770.920	0.0157989
770.998	0.0156627
771.076	0.0158698
771.155	0.0159328
771.233	0.0159417
771.311	0.0158023
771.389	0.0157649
771.467	0.0157349
771.545	0.0159537
771.623	0.0157964
771.701	0.0156210
771.780	0.0157232
771.858	0.0156481
771.936	0.0156677
772.014	0.0157415
772.092	0.0156082
772.170	0.0156110
772.248	0.0154987
772.326	0.0156517
772.405	0.0155984
772.483	0.0155810
772.561	0.0157749
772.639	0.0158799
772.717	0.0158186
772.795	0.0158010
772.873	0.0159097
772.951	0.0160194
773.030	0.0160995
773.108	0.0161110
773.186	0.0160699
773.264	0.0162122
773.342	0.0164279
773.420	0.0162782
773.498	0.0161626
773.576	0.0162907
773.655	0.0162453
773.733	0.0164113
773.811	0.0162690
773.889	0.0162991
773.967	0.0162959
774.045	0.0162586
774.123	0.0163439
774.201	0.0164047
774.280	0.0162744
774.358	0.0161741
774.436	0.0160814
774.514	0.0161165
774.592	0.0162133
774.670	0.0161419
774.748	0.0160676
774.826	0.0160591
774.905	0.0160305
774.983	0.0158473
775.061	0.0158723
775.139	0.0157922
775.217	0.0155845
775.295	0.0156778
775.373	0.0156545
775.451	0.0155316
775.530	0.0153577
775.608	0.0154550
775.686	0.0153596
775.764	0.0153259
775.842	0.0153864
775.920	0.0152181
775.998	0.0152677
776.076	0.0152366
776.155	0.0152827
776.233	0.0154708
776.311	0.0156013
776.389	0.0155180
776.467	0.0154930
776.545	0.0156598
776.623	0.0156742
776.701	0.0156707
776.780	0.0157925
776.858	0.0157584
776.936	0.0155824
777.014	0.0155577
777.092	0.0157054
777.170	0.0155802
777.248	0.0156544
777.326	0.0155506
777.405	0.0154530
777.483	0.0154960
777.561	0.0155160
777.639	0.0155226
777.717	0.0156512
777.795	0.0157218
777.873	0.0156471
777.951	0.0156661
778.030	0.0157876
778.108	0.0158292
778.186	0.0158866
778.264	0.0159834
778.342	0.0161505
778.420	0.0162423
778.498	0.0161175
778.576	0.0162134
778.655	0.0163430
778.733	0.0163522
778.811	0.0162005
778.889	0.0159849
778.967	0.0162328
779.045	0.0161144
779.123	0.0160855
779.201	0.0160611
779.280	0.0159199
779.358	0.0157643
779.436	0.0157890
779.514	0.0157623
779.592	0.0155465
779.670	0.0157258
779.748	0.0154167
779.826	0.0155117
779.905	0.0155048
779.983	0.0155582
780.061	0.0154967
780.139	0.0156870
780.217	0.0156057
780.295	0.0156242
780.373	0.0157520
780.451	0.0157592
780.530	0.0158554
780.608	0.0158772
780.686	0.0159975
780.764	0.0158459
780.842	0.0160939
780.920	0.0160932
780.998	0.0161134
781.076	0.0159232
781.155	0.0160432
781.233	0.0160168
781.311	0.0161436
781.389	0.0162063
781.467	0.0161756
781.545	0.0162262
781.623	0.0160977
781.701	0.0160259
781.780	0.0162360
781.858	0.0161533
781.936	0.0160744
782.014	0.0160449
782.092	0.0160031
782.170	0.0159258
782.248	0.0159103
782.326	0.0159075
782.405	0.0159470
782.483	0.0159219
782.561	0.0159565
782.639	0.0157922
782.717	0.0156280
782.795	0.0158771
782.873	0.0156488
782.951	0.0156239
783.030	0.0156713
783.108	0.0155946
783.186	0.0155668
783.264	0.0157096
783.342	0.0155965
783.420	0.0155418
783.498	0.0156223
783.576	0.0157409
783.655	0.0157615
783.733	0.0157737
783.811	0.0158025
783.889	0.0156708
783.967	0.0158459
784.045	0.0158279
784.123	0.0157677
784.201	0.0159214
784.280	0.0159201
784.358	0.0158700
784.436	0.0158659
784.514	0.0158529
784.592	0.0156508
784.670	0.0156124
784.748	0.0154627
784.826	0.0155668
784.905	0.0153400
784.983	0.0153526
785.061	0.0152647
785.139	0.0152216
785.217	0.0152022
785.295	0.0153252
785.373	0.0152863
785.451	0.0151742
785.530	0.0152155
785.608	0.0153665
785.686	0.0154459
785.764	0.0155052
785.842	0.0154751
785.920	0.0155650
785.998	0.0156789
786.076	0.0157742
786.155	0.0156357
786.233	0.0157002
786.311	0.0158308
786.389	0.0159638
786.467	0.0157718
786.545	0.0157166
786.623	0.0156809
786.701	0.0157728
786.780	0.0158378
786.858	0.0155308
786.936	0.0154537
787.014	0.0155215
787.092	0.0155611
787.170	0.0155404
787.248	0.0154263
787.326	0.0153276
787.405	0.0154313
787.483	0.0152596
787.561	0.0154514
787.639	0.0155602
787.717	0.0156869
787.795	0.0156956
787.873	0.0157376
787.951	0.0160618
788.030	0.0160523
788.108	0.0160619
788.186	0.0161311
788.264	0.0160659
788.342	0.0163046
788.420	0.0162527
788.498	0.0161819
788.576	0.0163662
788.655	0.0162864
788.733	0.0163110
788.811	0.0162636
788.889	0.0161371
788.967	0.0160509
789.045	0.0161301
789.123	0.0160690
789.201	0.0160012
789.280	0.0159287
789.358	0.0160435
789.436	0.0162270
789.514	0.0160274
789.592	0.0158998
789.670	0.0159330
789.748	0.0159105
789.826	0.0158032
789.905	0.0158870
789.983	0.0157199
790.061	0.0156722
790.139	0.0157512
790.217	0.0157426
790.295	0.0157117
790.373	0.0158296
790.451	0.0158300
790.530	0.0155860
790.608	0.0156951
790.686	0.0155836
790.764	0.0157232
790.842	0.0156061
790.920	0.0156271
790.998	0.0155914
791.076	0.0156825
791.155	0.0154306
791.233	0.0155793
791.311	0.0154831
791.389	0.0155499
791.467	0.0155263
791.545	0.0156803
791.623	0.0156477
791.701	0.0155679
791.780	0.0156896
791.858	0.0157433
791.936	0.0156924
792.014	0.0156436
792.092	0.0155113
792.170	0.0155702
792.248	0.0155029
792.326	0.0154354
792.405	0.0155460
792.483	0.0155839
792.561	0.0154929
792.639	0.0154413
792.717	0.0154771
792.795	0.0155573
792.873	0.0156425
792.951	0.0155110
793.030	0.0154586
793.108	0.0155099
793.186	0.0154668
793.264	0.0155687
793.342	0.0156362
793.420	0.0155690
793.498	0.0155887
793.576	0.0157761
793.655	0.0157005
793.733	0.0157266
793.811	0.0158514
793.889	0.0157939
793.967	0.0158499
794.045	0.0159274
794.123	0.0158012
794.201	0.0159563
794.280	0.0159225
794.358	0.0160034
794.436	0.0160970
794.514	0.0158556
794.592	0.0160757
794.670	0.0158749
794.748	0.0159121
794.826	0.0157936
794.905	0.0158127
794.983	0.0158641
795.061	0.0158612
795.139	0.0158602
795.217	0.0158446
795.295	0.0158784
795.373	0.0157745
795.451	0.0157027
795.530	0.0157442
795.608	0.0157391
795.686	0.0159528
795.764	0.0159797
795.842	0.0160712
795.920	0.0160329
795.998	0.0161296
796.076	0.0162929
796.155	0.0163466
796.233	0.0162254
796.311	0.0163767
796.389	0.0165083
796.467	0.0164608
796.545	0.0164718
796.623	0.0164157
796.701	0.0163795
796.780	0.0163504
796.858	0.0163107
796.936	0.0162879
797.014	0.0160070
797.092	0.0160985
797.170	0.0160549
797.248	0.0158191
797.326	0.0157416
797.405	0.0157777
797.483	0.0156392
797.561	0.0156203
797.639	0.0156377
797.717	0.0155181
797.795	0.0155031
797.873	0.0154124
797.951	0.0152970
798.030	0.0154031
798.108	0.0152992
798.186	0.0152982
798.264	0.0152755
798.342	0.0151870
798.420	0.0151591
798.498	0.0153207
798.576	0.0153355
798.655	0.0153130
798.733	0.0154507
798.811	0.0154169
798.889	0.0153030
798.967	0.0155269
799.045	0.0156110
799.123	0.0156050
799.201	0.0157555
799.280	0.0157602
799.358	0.0157069
799.436	0.0157434
799.514	0.0159310
799.592	0.0159868
799.670	0.0159890
799.748	0.0160007
799.826	0.0158936
799.905	0.0159218
799.983	0.0161086
800.061	0.0159996
800.139	0.0159809
800.217	0.0160034
800.295	0.0160777
800.373	0.0160136
800.451	0.0159792
800.530	0.0160552
800.608	0.0160283
800.686	0.0161517
800.764	0.0159409
800.842	0.0159727
800.920	0.0159858
800.998	0.0159940
801.076	0.0159090
801.155	0.0160892
801.233	0.0159565
801.311	0.0160970
801.389	0.0159218
801.467	0.0157491
801.545	0.0158528
801.623	0.0160148
801.701	0.0158981
801.780	0.0158290
801.858	0.0158549
801.936	0.0158302
802.014	0.0158426
802.092	0.0157309
802.170	0.0158565
802.248	0.0158837
802.326	0.0157865
802.405	0.0157015
802.483	0.0158080
802.561	0.0156443
802.639	0.0157824
802.717	0.0157510
802.795	0.0156625
802.873	0.0157439
802.951	0.0155468
803.030	0.0155648
803.108	0.0155502
803.186	0.0154987
803.264	0.0156387
803.342	0.0155653
803.420	0.0155489
803.498	0.0153851
803.576	0.0153848
803.655	0.0153478
803.733	0.0154425
803.811	0.0154963
803.889	0.0154604
803.967	0.0155892
804.045	0.0154630
804.123	0.0155412
804.201	0.0155250
804.280	0.0154829
804.358	0.0155929
804.436	0.0156120
804.514	0.0157913
804.592	0.0157964
804.670	0.0157539
804.748	0.0157503
804.826	0.0160005
804.905	0.0159695
804.983	0.0158321
805.061	0.0159084
805.139	0.0160409
805.217	0.0161189
805.295	0.0159607
805.373	0.0161082
805.451	0.0161293
805.530	0.0162077
805.608	0.0161356
805.686	0.0161555
805.764	0.0163448
805.842	0.0162367
805.920	0.0164190
805.998	0.0164587
806.076	0.0163763
806.155	0.0164318
806.233	0.0163636
806.311	0.0162931
806.389	0.0162896
806.467	0.0163236
806.545	0.0162086
806.623	0.0161805
806.701	0.0163390
806.780	0.0162251
806.858	0.0162658
806.936	0.0161017
807.014	0.0160715
807.092	0.0161110
807.170	0.0161340
807.248	0.0160090
807.326	0.0160194
807.405	0.0159564
807.483	0.0157866
807.561	0.0158480
807.639	0.0157465
807.717	0.0156760
807.795	0.0156246
807.873	0.0155670
807.951	0.0155005
808.030	0.0155103
808.108	0.0153986
808.186	0.0154079
808.264	0.0153725
808.342	0.0152623
808.420	0.0151961
808.498	0.0152731
808.576	0.0153888
808.655	0.0152076
808.733	0.0154251
808.811	0.0154452
808.889	0.0155206
808.967	0.0154521
809.045	0.0154588
809.123	0.0155156
809.201	0.0154239
809.280	0.0154430
809.358	0.0156152
809.436	0.0154926
809.514	0.0157921
809.592	0.0156207
809.670	0.0156438
809.748	0.0156882
809.826	0.0156284
809.905	0.0158018
809.983	0.0156107
810.061	0.0156596
810.139	0.0156908
810.217	0.0156902
810.295	0.0155874
810.373	0.0157001
810.451	0.0156482
810.530	0.0156020
810.608	0.0155661
810.686	0.0154404
810.764	0.0154860
810.842	0.0156225
810.920	0.0154869
810.998	0.0154971
811.076	0.0154836
811.155	0.0155532
811.233	0.0155758
811.311	0.0156902
811.389	0.0157989
811.467	0.0157264
811.545	0.0158340
811.623	0.0158536
811.701	0.0159573
811.780	0.0159607
811.858	0.0162045
811.936	0.0162488
812.014	0.0161944
812.092	0.0162958
812.170	0.0164877
812.248	0.0164185
812.326	0.0165774
812.405	0.0167152
812.483	0.0166728
812.561	0.0166232
812.639	0.0164319
812.717	0.0165684
812.795	0.0166141
812.873	0.0166870
812.951	0.0165031
813.030	0.0165047
813.108	0.0164812
813.186	0.0163179
813.264	0.0161520
813.342	0.0161895
813.420	0.0161722
813.498	0.0159856
813.576	0.0161296
813.655	0.0161230
813.733	0.0160661
813.811	0.0159623
813.889	0.0158724
813.967	0.0159029
814.045	0.0158182
814.123	0.0158170
814.201	0.0158334
814.280	0.0157370
814.358	0.0157724
814.436	0.0157662
814.514	0.0155870
814.592	0.0156492
814.670	0.0155965
814.748	0.0155664
814.826	0.0155238
814.905	0.0154827
814.983	0.0153648
815.061	0.0152633
815.139	0.0155090
815.217	0.0153582
815.295	0.0152415
815.373	0.0151672
815.451	0.0152381
815.530	0.0153268
815.608	0.0152234
815.686	0.0152676
815.764	0.0153059
815.842	0.0152621
815.920	0.0152812
815.998	0.0153141
816.076	0.0153284
816.155	0.0154113
816.233	0.0154837
816.311	0.0156123
816.389	0.0154753
816.467	0.0154990
816.545	0.0156353
816.623	0.0156192
816.701	0.0157245
816.780	0.0157793
816.858	0.0157818
816.936	0.0157331
817.014	0.0157186
817.092	0.0159133
817.170	0.0159866
817.248	0.0158724
817.326	0.0157938
817.405	0.0159917
817.483	0.0159736
817.561	0.0160680
817.639	0.0160561
817.717	0.0160419
817.795	0.0159697
817.873	0.0160764
817.951	0.0161842
818.030	0.0161176
818.108	0.0160664
818.186	0.0160629
818.264	0.0161905
818.342	0.0161046
818.420	0.0161608
818.498	0.0162017
818.576	0.0160638
818.655	0.0161115
818.733	0.0160437
818.811	0.0160657
818.889	0.0162054
818.967	0.0161137
819.045	0.0162426
819.123	0.0162603
819.201	0.0162348
819.280	0.0161416
819.358	0.0161393
819.436	0.0160915
819.514	0.0162905
819.592	0.0161356
819.670	0.0161035
819.748	0.0161520
819.826	0.0160542
819.905	0.0161076
819.983	0.0161386
820.061	0.0161200
820.139	0.0159859
820.217	0.0159550
820.295	0.0159717
820.373	0.0159398
820.451	0.0159193
820.530	0.0159555
820.608	0.0159281
820.686	0.0158206
820.764	0.0159067
820.842	0.0159071
820.920	0.0159074
820.998	0.0158117
821.076	0.0158389
821.155	0.0157546
821.233	0.0155576
821.311	0.0156628
821.389	0.0156901
821.467	0.0155132
821.545	0.0154427
821.623	0.0155662
821.701	0.0155310
821.780	0.0153248
821.858	0.0153011
821.936	0.0152015
822.014	0.0151526
822.092	0.0150959
822.170	0.0152094
822.248	0.0152522
822.326	0.0151126
822.405	0.0151088
822.483	0.0152461
822.561	0.0153519
822.639	0.0152242
822.717	0.0153352
822.795	0.0155603
822.873	0.0155577
822.951	0.0156187
823.030	0.0157965
823.108	0.0157066
823.186	0.0157462
823.264	0.0159142
823.342	0.0158356
823.420	0.0160296
823.498	0.0161365
823.576	0.0159754
823.655	0.0161246
823.733	0.0159687
823.811	0.0159653
823.889	0.0160327
823.967	0.0159617
824.045	0.0159184
824.123	0.0159858
824.201	0.0157697
824.280	0.0156572
824.358	0.0157812
824.436	0.0158308
824.514	0.0157768
824.592	0.0157112
824.670	0.0156995
824.748	0.0158734
824.826	0.0157894
824.905	0.0156522
824.983	0.0158763
825.061	0.0158560
825.139	0.0159280
825.217	0.0158629
825.295	0.0159499
825.373	0.0159441
825.451	0.0159251
825.530	0.0161597
825.608	0.0160792
825.686	0.0159917
825.764	0.0162304
825.842	0.0160345
825.920	0.0159641
825.998	0.0162198
826.076	0.0161642
826.155	0.0162830
826.233	0.0160414
826.311	0.0162556
826.389	0.0160091
826.467	0.0160437
826.545	0.0159908
826.623	0.0158916
826.701	0.0160170
826.780	0.0159265
826.858	0.0158699
826.936	0.0158503
827.014	0.0158344
827.092	0.0156757
827.170	0.0157578
827.248	0.0155990
827.326	0.0157582
827.405	0.0157167
827.483	0.0157189
827.561	0.0154996
827.639	0.0156791
827.717	0.0156425
827.795	0.0156039
827.873	0.0156362
827.951	0.0157586
828.030	0.0156266
828.108	0.0157656
828.186	0.0157543
828.264	0.0155917
828.342	0.0155831
828.420	0.0157231
828.498	0.0154897
828.576	0.0155811
828.655	0.0155190
828.733	0.0155162
828.811	0.0154891
828.889	0.0154120
828.967	0.0153947
829.045	0.0153509
829.123	0.0154976
829.201	0.0154253
829.280	0.0154148
829.358	0.0154082
829.436	0.0154593
829.514	0.0154973
829.592	0.0155562
829.670	0.0156396
829.748	0.0155304
829.826	0.0155884
829.905	0.0157095
829.983	0.0158305
830.061	0.0158517
830.139	0.0157795
830.217	0.0160519
830.295	0.0158721
830.373	0.0158674
830.451	0.0160809
830.530	0.0160440
830.608	0.0161091
830.686	0.0161211
830.764	0.0161621
830.842	0.0161929
830.920	0.0160747
830.998	0.0161535
831.076	0.0162332
831.155	0.0161739
831.233	0.0160903
831.311	0.0161017
831.389	0.0160822
831.467	0.0161117
831.545	0.0160170
831.623	0.0159678
831.701	0.0159799
831.780	0.0160006
831.858	0.0158940
831.936	0.0159043
832.014	0.0158785
832.092	0.0158309
832.170	0.0158511
832.248	0.0156652
832.326	0.0157896
832.405	0.0156886
832.483	0.0157961
832.561	0.0158202
832.639	0.0156808
832.717	0.0157957
832.795	0.0156768
832.873	0.0157715
832.951	0.0158932
833.030	0.0159036
833.108	0.0158694
833.186	0.0159221
833.264	0.0160211
833.342	0.0157069
833.420	0.0157941
833.498	0.0157613
833.576	0.0158289
833.655	0.0157993
833.733	0.0157375
833.811	0.0157971
833.889	0.0157238
833.967	0.0157015
834.045	0.0154968
834.123	0.0156529
834.201	0.0156589
834.280	0.0155670
834.358	0.0156212
834.436	0.0156395
834.514	0.0156237
834.592	0.0155593
834.670	0.0157193
834.748	0.0156832
834.826	0.0157236
834.905	0.0156708
834.983	0.0155344
835.061	0.0157531
835.139	0.0157262
835.217	0.0157260
835.295	0.0158678
835.373	0.0158593
835.451	0.0157772
835.530	0.0157767
835.608	0.0157214
835.686	0.0158556
835.764	0.0157909
835.842	0.0159914
835.920	0.0158221
835.998	0.0158424
836.076	0.0158614
836.155	0.0157140
836.233	0.0155867
836.311	0.0157790
836.389	0.0156744
836.467	0.0156525
836.545	0.0155832
836.623	0.0156156
836.701	0.0157522
836.780	0.0158810
836.858	0.0156778
836.936	0.0157501
837.014	0.0158303
837.092	0.0157261
837.170	0.0157893
837.248	0.0158530
837.326	0.0159653
837.405	0.0160822
837.483	0.0160267
837.561	0.0160742
837.639	0.0160379
837.717	0.0160207
837.795	0.0160261
837.873	0.0162289
837.951	0.0162574
838.030	0.0161440
838.108	0.0160860
838.186	0.0159747
838.264	0.0159589
838.342	0.0160276
838.420	0.0159585
838.498	0.0160087
838.576	0.0157613
838.655	0.0157547
838.733	0.0158395
838.811	0.0158066
838.889	0.0159731
838.967	0.0157184
839.045	0.0156936
839.123	0.0156647
839.201	0.0157666
839.280	0.0158172
839.358	0.0157297
839.436	0.0156287
839.514	0.0157305
839.592	0.0157832
839.670	0.0157183
839.748	0.0157749
839.826	0.0157547
839.905	0.0158124
839.983	0.0157463
840.061	0.0157497
840.139	0.0157261
840.217	0.0155962
840.295	0.0157347
840.373	0.0157800
840.451	0.0157653
840.530	0.0156155
840.608	0.0156593
840.686	0.0157665
840.764	0.0156228
840.842	0.0155721
840.920	0.0155528
840.998	0.0155485
841.076	0.0156674
841.155	0.0156661
841.233	0.0156358
841.311	0.0156866
841.389	0.0156720
841.467	0.0158342
841.545	0.0157371
841.623	0.0158245
841.701	0.0158756
841.780	0.0158073
841.858	0.0158281
841.936	0.0159014
842.014	0.0160170
842.092	0.0160056
842.170	0.0159874
842.248	0.0160185
842.326	0.0160679
842.405	0.0161318
842.483	0.0161652
842.561	0.0161053
842.639	0.0159191
842.717	0.0159873
842.795	0.0160319
842.873	0.0159774
842.951	0.0158045
843.030	0.0158318
843.108	0.0156984
843.186	0.0158142
843.264	0.0156439
843.342	0.0155775
843.420	0.0158067
843.498	0.0157257
843.576	0.0157853
843.655	0.0156676
843.733	0.0157580
843.811	0.0156419
843.889	0.0157327
843.967	0.0157269
844.045	0.0157700
844.123	0.0157796
844.201	0.0157767
844.280	0.0158253
844.358	0.0159341
844.436	0.0158248
844.514	0.0159078
844.592	0.0159045
844.670	0.0159269
844.748	0.0159827
844.826	0.0160001
844.905	0.0158207
844.983	0.0158071
845.061	0.0159192
845.139	0.0157275
845.217	0.0158579
845.295	0.0156071
845.373	0.0157824
845.451	0.0156445
845.530	0.0158044
845.608	0.0158440
845.686	0.0158586
845.764	0.0158958
845.842	0.0158730
845.920	0.0157559
845.998	0.0157649
846.076	0.0157857
846.155	0.0157471
846.233	0.0157803
846.311	0.0158358
846.389	0.0157126
846.467	0.0156787
846.545	0.0157513
846.623	0.0157527
846.701	0.0157664
846.780	0.0157681
846.858	0.0157155
846.936	0.0157418
847.014	0.0156036
847.092	0.0157159
847.170	0.0158099
847.248	0.0157750
847.326	0.0157684
847.405	0.0157469
847.483	0.0157546
847.561	0.0159019
847.639	0.0158568
847.717	0.0157942
847.795	0.0157195
847.873	0.0158859
847.951	0.0157215
848.030	0.0157173
848.108	0.0159708
848.186	0.0157854
848.264	0.0158440
848.342	0.0157343
848.420	0.0160134
848.498	0.0160186
848.576	0.0158624
848.655	0.0159171
848.733	0.0159042
848.811	0.0159384
848.889	0.0159008
848.967	0.0160462
849.045	0.0158645
849.123	0.0160951
849.201	0.0162045
849.280	0.0160402
849.358	0.0159794
849.436	0.0159628
849.514	0.0159112
849.592	0.0159619
849.670	0.0158366
849.748	0.0158270
849.826	0.0158625
849.905	0.0159520
849.983	0.0158044
850.061	0.0157881
850.139	0.0157785
850.217	0.0156797
850.295	0.0157181
850.373	0.0156242
850.451	0.0157621
850.530	0.0157065
850.608	0.0157205
850.686	0.0156019
850.764	0.0156328
850.842	0.0155132
850.920	0.0155602
850.998	0.0156786
851.076	0.0156586
851.155	0.0156250
851.233	0.0155355
851.311	0.0155679
851.389	0.0156143
851.467	0.0154658
851.545	0.0155384
851.623	0.0155993
851.701	0.0156133
851.780	0.0156544
851.858	0.0155261
851.936	0.0155343
852.014	0.0156094
852.092	0.0155880
852.170	0.0156088
852.248	0.0155977
852.326	0.0155200
852.405	0.0155453
852.483	0.0156053
852.561	0.0155748
852.639	0.0156035
852.717	0.0156728
852.795	0.0156361
852.873	0.0157033
852.951	0.0158023
853.030	0.0157825
853.108	0.0158335
853.186	0.0158982
853.264	0.0157162
853.342	0.0157603
853.420	0.0159479
853.498	0.0159219
853.576	0.0158740
853.655	0.0158910
853.733	0.0158816
853.811	0.0159081
853.889	0.0159937
853.967	0.0158493
854.045	0.0159173
854.123	0.0159755
854.201	0.0159459
854.280	0.0159981
854.358	0.0159356
854.436	0.0157972
854.514	0.0158802
854.592	0.0159368
854.670	0.0157757
854.748	0.0159123
854.826	0.0157880
854.905	0.0157098
854.983	0.0156428
855.061	0.0157378
855.139	0.0157848
855.217	0.0157987
855.295	0.0157845
855.373	0.0159045
855.451	0.0157321
855.530	0.0158062
855.608	0.0158501
855.686	0.0157834
855.764	0.0159048
855.842	0.0158005
855.920	0.0158530
855.998	0.0158694
856.076	0.0157709
856.155	0.0157951
856.233	0.0159994
856.311	0.0157486
856.389	0.0158372
856.467	0.0157156
856.545	0.0157949
856.623	0.0157411
856.701	0.0156862
856.780	0.0156781
856.858	0.0155672
856.936	0.0155998
857.014	0.0155782
857.092	0.0156036
857.170	0.0156573
857.248	0.0156523
857.326	0.0156532
857.405	0.0156670
857.483	0.0157100
857.561	0.0156693
857.639	0.0157505
857.717	0.0156671
857.795	0.0157604
857.873	0.0157743
857.951	0.0156641
858.030	0.0157749
858.108	0.0157676
858.186	0.0156503
858.264	0.0156152
858.342	0.0156155
858.420	0.0157444
858.498	0.0156447
858.576	0.0155643
858.655	0.0156392
858.733	0.0155388
858.811	0.0156465
858.889	0.0156566
858.967	0.0155817
859.045	0.0155731
859.123	0.0155927
859.201	0.0157034
859.280	0.0157001
859.358	0.0158459
859.436	0.0158049
859.514	0.0158292
859.592	0.0158537
859.670	0.0159799
859.748	0.0159160
859.826	0.0159357
859.905	0.0161359
859.983	0.0159631
860.061	0.0158441
860.139	0.0161094
860.217	0.0160393
860.295	0.0159726
860.373	0.0159544
860.451	0.0160210
860.530	0.0159306
860.608	0.0159743
860.686	0.0157855
860.764	0.0158238
860.842	0.0158645
860.920	0.0158747
860.998	0.0158382
861.076	0.0158285
861.155	0.0157431
861.233	0.0157292
861.311	0.0159273
861.389	0.0157218
861.467	0.0158461
861.545	0.0158286
861.623	0.0158275
861.701	0.0159056
861.780	0.0157512
861.858	0.0158905
861.936	0.0158542
862.014	0.0159044
862.092	0.0159400
862.170	0.0157587
862.248	0.0158069
862.326	0.0157541
862.405	0.0158089
862.483	0.0158449
862.561	0.0157180
862.639	0.0158126
862.717	0.0158569
862.795	0.0157954
862.873	0.0156822
862.951	0.0156320
863.030	0.0156982
863.108	0.0156716
863.186	0.0156301
863.264	0.0157630
863.342	0.0157547
863.420	0.0156171
863.498	0.0156660
863.576	0.0156969
863.655	0.0155650
863.733	0.0155423
863.811	0.0155065
863.889	0.0155553
863.967	0.0158014
864.045	0.0155676
864.123	0.0156512
864.201	0.0156892
864.280	0.0157744
864.358	0.0157594
864.436	0.0157607
864.514	0.0157899
864.592	0.0157636
864.670	0.0157645
864.748	0.0157240
864.826	0.0157774
864.905	0.0158700
864.983	0.0156051
865.061	0.0157478
865.139	0.0158332
865.217	0.0156441
865.295	0.0157143
865.373	0.0157013
865.451	0.0157961
865.530	0.0157397
865.608	0.0156150
865.686	0.0155946
865.764	0.0157349
865.842	0.0157112
865.920	0.0157306
865.998	0.0157465
866.076	0.0156198
866.155	0.0155889
866.233	0.0157270
866.311	0.0158456
866.389	0.0158227
866.467	0.0156832
866.545	0.0157195
866.623	0.0157397
866.701	0.0157816
866.780	0.0159310
866.858	0.0157217
866.936	0.0157281
867.014	0.0158091
867.092	0.0158496
867.170	0.0156989
867.248	0.0157525
867.326	0.0157337
867.405	0.0157058
867.483	0.0157941
867.561	0.0158083
867.639	0.0157360
867.717	0.0158043
867.795	0.0157459
867.873	0.0157690
867.951	0.0158132
868.030	0.0159743
868.108	0.0157578
868.186	0.0156773
868.264	0.0156847
868.342	0.0158315
868.420	0.0157465
868.498	0.0156827
868.576	0.0155670
868.655	0.0157168
868.733	0.0156747
868.811	0.0155696
868.889	0.0156908
868.967	0.0155457
869.045	0.0157151
869.123	0.0156211
869.201	0.0156544
869.280	0.0155328
869.358	0.0156759
869.436	0.0157227
869.514	0.0158219
869.592	0.0157227
869.670	0.0157195
869.748	0.0157778
869.826	0.0157526
869.905	0.0158462
869.983	0.0159776
870.061	0.0159267
870.139	0.0158605
870.217	0.0160255
870.295	0.0158361
870.373	0.0158331
870.451	0.0158652
870.530	0.0161089
870.608	0.0159313
870.686	0.0157558
870.764	0.0157638
870.842	0.0156892
870.920	0.0156960
870.998	0.0156966
871.076	0.0157316
871.155	0.0157259
871.233	0.0156400
871.311	0.0156567
871.389	0.0156420
871.467	0.0157722
871.545	0.0157352
871.623	0.0156860
871.701	0.0157867
871.780	0.0158317
871.858	0.0158846
871.936	0.0157510
872.014	0.0159004
872.092	0.0159991
872.170	0.0159586
872.248	0.0161622
872.326	0.0159930
872.405	0.0159911
872.483	0.0159415
872.561	0.0159633
872.639	0.0159660
872.717	0.0158583
872.795	0.0157842
872.873	0.0158770
872.951	0.0157615
873.030	0.0157873
873.108	0.0157027
873.186	0.0156838
873.264	0.0155943
873.342	0.0156097
873.420	0.0157340
873.498	0.0155181
873.576	0.0154929
873.655	0.0156474
873.733	0.0154897
873.811	0.0156937
873.889	0.0156566
873.967	0.0155653
874.045	0.0155494
874.123	0.0155313
874.201	0.0157014
874.280	0.0156233
874.358	0.0157518
874.436	0.0157659
874.514	0.0157922
874.592	0.0157674
874.670	0.0159077
874.748	0.0158855
874.826	0.0158376
874.905	0.0159135
874.983	0.0159198
875.061	0.0159029
875.139	0.0159606
875.217	0.0157175
875.295	0.0158701
875.373	0.0158530
875.451	0.0157450
875.530	0.0157520
875.608	0.0157172
875.686	0.0157886
875.764	0.0158506
875.842	0.0157420
875.920	0.0156581
875.998	0.0155390
876.076	0.0156319
876.155	0.0156316
876.233	0.0155751
876.311	0.0155876
876.389	0.0157323
876.467	0.0157128
876.545	0.0155682
876.623	0.0158067
876.701	0.0158756
876.780	0.0159231
876.858	0.0159541
876.936	0.0160902
877.014	0.0158691
877.092	0.0159492
877.170	0.0160555
877.248	0.0161261
877.326	0.0160313
877.405	0.0159682
877.483	0.0160311
877.561	0.0158976
877.639	0.0159422
877.717	0.0159357
877.795	0.0159054
877.873	0.0158649
877.951	0.0159663
878.030	0.0158086
878.108	0.0159237
878.186	0.0159541
878.264	0.0158932
878.342	0.0159689
878.420	0.0158566
878.498	0.0158817
878.576	0.0158698
878.655	0.0158080
878.733	0.0159525
878.811	0.0159622
878.889	0.0159427
878.967	0.0158678
879.045	0.0159224
879.123	0.0159274
879.201	0.0159682
879.280	0.0159408
879.358	0.0159389
879.436	0.0157322
879.514	0.0158421
879.592	0.0158483
879.670	0.0157590
879.748	0.0157227
879.826	0.0158208
879.905	0.0159067
879.983	0.0156731
880.061	0.0157764
880.139	0.0158470
880.217	0.0157119
880.295	0.0157626
880.373	0.0157536
880.451	0.0157420
880.530	0.0158042
880.608	0.0156812
880.686	0.0157260
880.764	0.0156281
880.842	0.0156865
880.920	0.0157320
880.998	0.0157123
881.076	0.0157355
881.155	0.0156101
881.233	0.0156347
881.311	0.0155569
881.389	0.0156071
881.467	0.0157494
881.545	0.0156666
881.623	0.0157925
881.701	0.0156561
881.780	0.0158608
881.858	0.0156389
881.936	0.0157698
882.014	0.0158822
882.092	0.0158675
882.170	0.0158889
882.248	0.0158138
882.326	0.0158542
882.405	0.0158348
882.483	0.0158200
882.561	0.0159020
882.639	0.0157163
882.717	0.0158517
882.795	0.0158741
882.873	0.0158119
882.951	0.0158228
883.030	0.0157731
883.108	0.0155608
883.186	0.0155555
883.264	0.0157461
883.342	0.0157768
883.420	0.0157298
883.498	0.0157177
883.576	0.0156998
883.655	0.0156133
883.733	0.0157484
883.811	0.0156319
883.889	0.0158093
883.967	0.0157032
884.045	0.0156271
884.123	0.0157676
884.201	0.0157538
884.280	0.0157294
884.358	0.0157533
884.436	0.0158276
884.514	0.0159212
884.592	0.0157388
884.670	0.0157433
884.748	0.0158901
884.826	0.0159831
884.905	0.0159489
884.983	0.0159117
885.061	0.0158805
885.139	0.0159322
885.217	0.0158245
885.295	0.0159039
885.373	0.0159059
885.451	0.0158392
885.530	0.0158276
885.608	0.0157653
885.686	0.0158270
885.764	0.0157710
885.842	0.0157029
885.920	0.0157401
885.998	0.0157064
886.076	0.0158007
886.155	0.0157064
886.233	0.0155978
886.311	0.0157426
886.389	0.0157197
886.467	0.0156166
886.545	0.0155717
886.623	0.0155831
886.701	0.0156073
886.780	0.0157941
886.858	0.0156516
886.936	0.0157618
887.014	0.0158195
887.092	0.0157655
887.170	0.0156599
887.248	0.0158527
887.326	0.0156853
887.405	0.0157948
887.483	0.0156461
887.561	0.0158785
887.639	0.0159303
887.717	0.0158709
887.795	0.0157919
887.873	0.0157738
887.951	0.0157256
888.030	0.0156348
888.108	0.0156155
888.186	0.0157507
888.264	0.0158037
888.342	0.0157479
888.420	0.0156143
888.498	0.0156767
888.576	0.0156266
888.655	0.0156281
888.733	0.0155611
888.811	0.0156084
888.889	0.0156764
888.967	0.0155815
889.045	0.0156597
889.123	0.0156572
889.201	0.0157967
889.280	0.0156073
889.358	0.0156628
889.436	0.0157044
889.514	0.0157368
889.592	0.0158267
889.670	0.0156985
889.748	0.0157941
889.826	0.0158084
889.905	0.0157501
889.983	0.0156622
890.061	0.0160413
890.139	0.0158342
890.217	0.0158554
890.295	0.0157324
890.373	0.0157928
890.451	0.0157704
890.530	0.0158764
890.608	0.0158013
890.686	0.0157838
890.764	0.0158366
890.842	0.0157861
890.920	0.0157716
890.998	0.0158500
891.076	0.0158656
891.155	0.0157008
891.233	0.0157561
891.311	0.0157985
891.389	0.0157770
891.467	0.0158769
891.545	0.0157810
891.623	0.0158591
891.701	0.0157606
891.780	0.0157625
891.858	0.0157771
891.936	0.0158066
892.014	0.0158093
892.092	0.0157447
892.170	0.0158809
892.248	0.0157123
892.326	0.0158054
892.405	0.0158007
892.483	0.0157754
892.561	0.0157354
892.639	0.0158105
892.717	0.0157056
892.795	0.0156834
892.873	0.0156861
892.951	0.0157310
893.030	0.0158270
893.108	0.0158302
893.186	0.0158264
893.264	0.0158752
893.342	0.0158048
893.420	0.0157962
893.498	0.0157688
893.576	0.0158542
893.655	0.0158273
893.733	0.0158429
893.811	0.0157878
893.889	0.0155963
893.967	0.0156227
894.045	0.0157603
894.123	0.0157870
894.201	0.0156766
894.280	0.0156958
894.358	0.0158053
894.436	0.0157739
894.514	0.0156706
894.592	0.0157441
894.670	0.0158489
894.748	0.0157883
894.826	0.0158341
894.905	0.0157960
894.983	0.0157292
895.061	0.0159559
895.139	0.0157793
895.217	0.0157306
895.295	0.0157088
895.373	0.0159074
895.451	0.0159454
895.530	0.0157767
895.608	0.0156447
895.686	0.0156966
895.764	0.0156374
895.842	0.0158029
895.920	0.0158532
895.998	0.0157422
896.076	0.0157444
896.155	0.0157555
896.233	0.0157657
896.311	0.0158075
896.389	0.0157265
896.467	0.0157603
896.545	0.0158012
896.623	0.0158310
896.701	0.0156869
896.780	0.0157302
896.858	0.0157915
896.936	0.0159116
897.014	0.0158204
897.092	0.0158665
897.170	0.0156844
897.248	0.0158276
897.326	0.0159087
897.405	0.0158734
897.483	0.0158554
897.561	0.0158352
897.639	0.0159023
897.717	0.0159684
897.795	0.0161443
897.873	0.0158348
897.951	0.0159623
898.030	0.0159613
898.108	0.0159537
898.186	0.0159871
898.264	0.0158746
898.342	0.0159142
898.420	0.0158758
898.498	0.0158937
898.576	0.0158620
898.655	0.0157668
898.733	0.0159804
898.811	0.0157475
898.889	0.0159685
898.967	0.0158205
899.045	0.0158021
899.123	0.0157153
899.201	0.0156917
899.280	0.0157845
899.358	0.0159007
899.436	0.0159505
899.514	0.0157758
899.592	0.0158632
899.670	0.0158348
899.748	0.0157934
899.826	0.0158797
899.905	0.0158013
899.983	0.0159243
900.061	0.0160226
900.139	0.0159035
900.217	0.0158680
900.295	0.0158099
900.373	0.0157619
900.451	0.0157221
900.530	0.0157465
900.608	0.0158002
900.686	0.0158598
900.764	0.0158056
900.842	0.0159124
900.920	0.0159007
900.998	0.0157745
901.076	0.0158549
901.155	0.0159525
901.233	0.0158568
901.311	0.0158730
901.389	0.0159180
901.467	0.0159165
901.545	0.0158894
901.623	0.0160146
901.701	0.0159952
901.780	0.0159229
901.858	0.0158809
901.936	0.0159676
902.014	0.0159507
902.092	0.0159804
902.170	0.0159814
902.248	0.0160049
902.326	0.0160246
902.405	0.0158907
902.483	0.0159310
902.561	0.0159216
902.639	0.0158817
902.717	0.0158993
902.795	0.0157609
902.873	0.0157726
902.951	0.0158102
903.030	0.0157165
903.108	0.0158363
903.186	0.0159000
903.264	0.0157289
903.342	0.0157231
903.420	0.0157987
903.498	0.0158447
903.576	0.0157298
903.655	0.0159299
903.733	0.0159663
903.811	0.0158836
903.889	0.0156801
903.967	0.0157567
904.045	0.0158566
904.123	0.0157359
904.201	0.0158421
904.280	0.0158748
904.358	0.0157770
904.436	0.0158093
904.514	0.0157905
904.592	0.0158237
904.670	0.0157342
904.748	0.0157845
904.826	0.0157444
904.905	0.0156998
904.983	0.0156950
905.061	0.0156706
905.139	0.0156545
905.217	0.0156038
905.295	0.0155151
905.373	0.0154722
905.451	0.0155688
905.530	0.0156063
905.608	0.0156047
905.686	0.0155824
905.764	0.0157793
905.842	0.0156378
905.920	0.0156252
905.998	0.0156910
906.076	0.0157223
906.155	0.0158037
906.233	0.0157334
906.311	0.0159276
906.389	0.0159239
906.467	0.0160281
906.545	0.0158796
906.623	0.0157543
906.701	0.0158894
906.780	0.0159930
906.858	0.0158042
906.936	0.0159874
907.014	0.0159370
907.092	0.0157492
907.170	0.0157092
907.248	0.0157865
907.326	0.0157384
907.405	0.0157195
907.483	0.0159325
907.561	0.0156523
907.639	0.0156757
907.717	0.0156626
907.795	0.0156046
907.873	0.0157598
907.951	0.0157019
908.030	0.0157033
908.108	0.0156052
908.186	0.0155291
908.264	0.0157245
908.342	0.0157575
908.420	0.0158060
908.498	0.0157200
908.576	0.0156591
908.655	0.0157918
908.733	0.0158309
908.811	0.0157961
908.889	0.0158957
908.967	0.0157770
909.045	0.0157058
909.123	0.0158092
909.201	0.0156916
909.280	0.0157845
909.358	0.0157949
909.436	0.0157060
909.514	0.0157016
909.592	0.0158118
909.670	0.0159442
909.748	0.0158826
909.826	0.0159698
909.905	0.0159422
909.983	0.0159503
910.061	0.0160875
910.139	0.0159365
910.217	0.0159703
910.295	0.0161314
910.373	0.0159203
910.451	0.0160128
910.530	0.0161636
910.608	0.0161335
910.686	0.0160410
910.764	0.0160423
910.842	0.0161496
910.920	0.0160604
910.998	0.0159925
911.076	0.0159787
911.155	0.0160107
911.233	0.0160365
911.311	0.0159792
911.389	0.0158998
911.467	0.0158902
911.545	0.0157021
911.623	0.0157407
911.701	0.0156545
911.780	0.0156560
911.858	0.0154531
911.936	0.0155962
912.014	0.0155610
912.092	0.0154461
912.170	0.0154155
912.248	0.0154838
912.326	0.0154298
912.405	0.0154138
912.483	0.0154555
912.561	0.0154558
912.639	0.0154666
912.717	0.0155090
912.795	0.0156027
912.873	0.0155910
912.951	0.0157191
913.030	0.0157149
913.108	0.0156565
913.186	0.0156800
913.264	0.0157600
913.342	0.0158490
913.420	0.0158784
913.498	0.0158362
913.576	0.0159231
913.655	0.0159512
913.733	0.0159570
913.811	0.0159873
913.889	0.0160658
913.967	0.0160003
914.045	0.0159085
914.123	0.0161018
914.201	0.0160508
914.280	0.0159280
914.358	0.0160603
914.436	0.0159377
914.514	0.0158586
914.592	0.0158091
914.670	0.0157716
914.748	0.0157798
914.826	0.0157219
914.905	0.0157656
914.983	0.0157214
915.061	0.0159601
915.139	0.0157508
915.217	0.0158881
915.295	0.0158144
915.373	0.0159080
915.451	0.0158970
915.530	0.0159019
915.608	0.0158913
915.686	0.0160831
915.764	0.0159116
915.842	0.0159217
915.920	0.0160275
915.998	0.0161308
916.076	0.0160455
916.155	0.0159594
916.233	0.0160459
916.311	0.0159626
916.389	0.0161084
916.467	0.0159857
916.545	0.0160425
916.623	0.0159916
916.701	0.0158794
916.780	0.0160387
916.858	0.0160176
916.936	0.0158507
917.014	0.0158414
917.092	0.0158508
917.170	0.0158965
917.248	0.0157770
917.326	0.0156085
917.405	0.0157246
917.483	0.0156651
917.561	0.0155587
917.639	0.0156831
917.717	0.0156729
917.795	0.0154972
917.873	0.0157666
917.951	0.0156592
918.030	0.0157142
918.108	0.0156961
918.186	0.0157137
918.264	0.0157355
918.342	0.0157299
918.420	0.0157704
918.498	0.0157447
918.576	0.0157439
918.655	0.0157041
918.733	0.0157112
918.811	0.0156049
918.889	0.0157787
918.967	0.0157842
919.045	0.0154982
919.123	0.0156228
919.201	0.0156946
919.280	0.0156850
919.358	0.0156505
919.436	0.0156960
919.514	0.0154563
919.592	0.0156222
919.670	0.0157389
919.748	0.0156711
919.826	0.0155984
919.905	0.0157225
919.983	0.0158093
920.061	0.0158961
920.139	0.0158267
920.217	0.0159960
920.295	0.0160080
920.373	0.0160155
920.451	0.0160783
920.530	0.0160094
920.608	0.0160577
920.686	0.0160458
920.764	0.0161055
920.842	0.0160921
920.920	0.0159530
920.998	0.0160155
921.076	0.0162086
921.155	0.0160719
921.233	0.0159842
921.311	0.0160632
921.389	0.0160157
921.467	0.0161468
921.545	0.0160316
921.623	0.0158519
921.701	0.0159570
921.780	0.0160023
921.858	0.0159821
921.936	0.0158758
922.014	0.0158255
922.092	0.0161082
922.170	0.0160930
922.248	0.0159011
922.326	0.0159463
922.405	0.0161184
922.483	0.0159961
922.561	0.0161712
922.639	0.0159530
922.717	0.0159261
922.795	0.0160796
922.873	0.0160211
922.951	0.0160986
923.030	0.0159840
923.108	0.0159605
923.186	0.0159164
923.264	0.0159146
923.342	0.0156655
923.420	0.0158479
923.498	0.0157648
923.576	0.0156380
923.655	0.0157238
923.733	0.0154927
923.811	0.0156257
923.889	0.0157131
923.967	0.0155646
924.045	0.0156650
924.123	0.0154786
924.201	0.0154869
924.280	0.0155859
924.358	0.0155782
924.436	0.0157385
924.514	0.0158146
924.592	0.0156765
924.670	0.0157219
924.748	0.0158623
924.826	0.0157831
924.905	0.0158019
924.983	0.0158877
925.061	0.0158003
925.139	0.0158846
925.217	0.0159621
925.295	0.0158040
925.373	0.0156889
925.451	0.0157925
925.530	0.0158327
925.608	0.0157162
925.686	0.0158054
925.764	0.0157102
925.842	0.0158089
925.920	0.0157220
925.998	0.0157656
926.076	0.0156570
926.155	0.0155489
926.233	0.0155873
926.311	0.0156360
926.389	0.0156269
926.467	0.0156615
926.545	0.0156471
926.623	0.0155188
926.701	0.0155105
926.780	0.0156308
926.858	0.0155787
926.936	0.0156355
927.014	0.0157922
927.092	0.0156198
927.170	0.0157912
927.248	0.0158148
927.326	0.0158273
927.405	0.0158837
927.483	0.0158794
927.561	0.0158177
927.639	0.0158076
927.717	0.0159020
927.795	0.0157877
927.873	0.0159460
927.951	0.0158386
928.030	0.0159108
928.108	0.0159256
928.186	0.0156988
928.264	0.0157812
928.342	0.0157397
928.420	0.0158068
928.498	0.0157690
928.576	0.0157644
928.655	0.0157670
928.733	0.0156381
928.811	0.0157737
928.889	0.0157663
928.967	0.0158557
929.045	0.0158016
929.123	0.0158443
929.201	0.0159126
929.280	0.0157022
929.358	0.0158925
929.436	0.0157863
929.514	0.0157830
929.592	0.0158992
929.670	0.0158497
929.748	0.0157613
929.826	0.0159144
929.905	0.0160071
929.983	0.0157752
930.061	0.0158494
930.139	0.0159189
930.217	0.0157126
930.295	0.0158366
930.373	0.0157884
930.451	0.0157026
930.530	0.0155977
930.608	0.0155669
930.686	0.0157225
930.764	0.0157775
930.842	0.0155828
930.920	0.0155686
930.998	0.0156700
931.076	0.0155928
931.155	0.0156037
931.233	0.0157114
931.311	0.0157311
931.389	0.0158292
931.467	0.0157691
931.545	0.0157917
931.623	0.0158592
931.701	0.0158669
931.780	0.0158134
931.858	0.0159883
931.936	0.0158939
932.014	0.0159611
932.092	0.0159430
932.170	0.0158723
932.248	0.0159733
932.326	0.0159418
932.405	0.0159137
932.483	0.0160013
932.561	0.0157374
932.639	0.0158567
932.717	0.0159216
932.795	0.0158927
932.873	0.0156004
932.951	0.0157546
933.030	0.0157925
933.108	0.0159203
933.186	0.0157812
933.264	0.0157707
933.342	0.0155164
933.420	0.0155728
933.498	0.0156878
933.576	0.0157221
933.655	0.0156496
933.733	0.0156168
933.811	0.0156204
933.889	0.0157806
933.967	0.0156554
934.045	0.0155199
934.123	0.0157763
934.201	0.0157211
934.280	0.0158707
934.358	0.0157045
934.436	0.0158016
934.514	0.0157375
934.592	0.0157758
934.670	0.0157681
934.748	0.0157489
934.826	0.0157900
934.905	0.0157945
934.983	0.0159632
935.061	0.0158276
935.139	0.0156115
935.217	0.0158932
935.295	0.0157995
935.373	0.0157602
935.451	0.0158103
935.530	0.0157037
935.608	0.0157133
935.686	0.0156564
935.764	0.0157670
935.842	0.0155740
935.920	0.0156670
935.998	0.0156620
936.076	0.0156533
936.155	0.0157449
936.233	0.0157279
936.311	0.0157198
936.389	0.0158978
936.467	0.0158072
936.545	0.0157675
936.623	0.0158102
936.701	0.0159355
936.780	0.0160270
936.858	0.0160011
936.936	0.0159624
937.014	0.0161506
937.092	0.0161069
937.170	0.0160597
937.248	0.0161040
937.326	0.0160976
937.405	0.0160388
937.483	0.0160413
937.561	0.0159834
937.639	0.0159377
937.717	0.0159794
937.795	0.0159347
937.873	0.0158457
937.951	0.0158973
938.030	0.0159765
938.108	0.0158508
938.186	0.0159844
938.264	0.0159074
938.342	0.0157960
938.420	0.0157961
938.498	0.0159167
938.576	0.0159536
938.655	0.0159379
938.733	0.0157540
938.811	0.0159423
938.889	0.0160944
938.967	0.0158458
939.045	0.0157215
939.123	0.0158287
939.201	0.0158445
939.280	0.0158850
939.358	0.0158037
939.436	0.0157012
939.514	0.0157027
939.592	0.0158062
939.670	0.0157154
939.748	0.0157289
939.826	0.0156991
939.905	0.0156847
939.983	0.0155822
940.061	0.0156468
940.139	0.0156110
940.217	0.0156126
940.295	0.0156168
940.373	0.0157526
940.451	0.0156385
940.530	0.0156598
940.608	0.0157831
940.686	0.0157236
940.764	0.0156475
940.842	0.0157457
940.920	0.0158387
940.998	0.0157741
941.076	0.0156715
941.155	0.0156892
941.233	0.0157671
941.311	0.0157937
941.389	0.0155874
941.467	0.0157960
941.545	0.0157946
941.623	0.0157632
941.701	0.0158227
941.780	0.0158579
941.858	0.0158146
941.936	0.0159021
942.014	0.0157178
942.092	0.0158940
942.170	0.0157550
942.248	0.0158240
942.326	0.0158321
942.405	0.0157124
942.483	0.0158601
942.561	0.0158141
942.639	0.0158360
942.717	0.0159763
942.795	0.0158491
942.873	0.0159668
942.951	0.0158847
943.030	0.0158371
943.108	0.0158742
943.186	0.0159843
943.264	0.0159962
943.342	0.0159303
943.420	0.0158986
943.498	0.0160040
943.576	0.0159393
943.655	0.0158242
943.733	0.0159364
943.811	0.0160147
943.889	0.0161114
943.967	0.0160043
944.045	0.0159850
944.123	0.0159301
944.201	0.0160320
944.280	0.0160583
944.358	0.0159827
944.436	0.0159036
944.514	0.0160176
944.592	0.0158431
944.670	0.0159291
944.748	0.0157891
944.826	0.0159173
944.905	0.0159598
944.983	0.0158420
945.061	0.0159177
945.139	0.0158109
945.217	0.0155923
945.295	0.0157197
945.373	0.0158275
945.451	0.0157667
945.530	0.0157049
945.608	0.0156956
945.686	0.0157405
945.764	0.0157101
945.842	0.0157188
945.920	0.0155661
945.998	0.0157587
946.076	0.0156797
946.155	0.0155417
946.233	0.0155902
946.311	0.0155222
946.389	0.0155785
946.467	0.0155616
946.545	0.0155566
946.623	0.0156744
946.701	0.0156361
946.780	0.0155350
946.858	0.0156252
946.936	0.0157150
947.014	0.0157777
947.092	0.0156377
947.170	0.0156660
947.248	0.0157050
947.326	0.0156461
947.405	0.0158092
947.483	0.0158167
947.561	0.0155997
947.639	0.0157931
947.717	0.0157594
947.795	0.0157371
947.873	0.0156535
947.951	0.0156698
948.030	0.0156947
948.108	0.0155709
948.186	0.0156807
948.264	0.0156744
948.342	0.0156448
948.420	0.0157531
948.498	0.0158260
948.576	0.0156592
948.655	0.0157298
948.733	0.0157108
948.811	0.0155581
948.889	0.0156844
948.967	0.0156850
949.045	0.0157417
949.123	0.0155490
949.201	0.0156097
949.280	0.0157143
949.358	0.0157543
949.436	0.0158089
949.514	0.0158160
949.592	0.0157878
949.670	0.0157719
949.748	0.0157449
949.826	0.0157829
949.905	0.0157824
949.983	0.0159354
950.061	0.0159406
950.139	0.0158099
950.217	0.0158043
950.295	0.0159407
950.373	0.0158368
950.451	0.0159243
950.530	0.0159293
950.608	0.0157910
950.686	0.0159576
950.764	0.0159223
950.842	0.0160408
950.920	0.0160528
950.998	0.0159509
951.076	0.0160941
951.155	0.0159389
951.233	0.0159256
951.311	0.0159659
951.389	0.0158155
951.467	0.0159825
951.545	0.0158973
951.623	0.0157975
951.701	0.0158228
951.780	0.0157685
951.858	0.0158260
951.936	0.0158004
952.014	0.0157336
952.092	0.0156023
952.170	0.0157156
952.248	0.0157256
952.326	0.0157662
952.405	0.0156443
952.483	0.0155971
952.561	0.0156156
952.639	0.0156333
952.717	0.0156140
952.795	0.0155982
952.873	0.0156293
952.951	0.0156843
953.030	0.0157448
953.108	0.0155347
953.186	0.0155376
953.264	0.0156762
953.342	0.0156078
953.420	0.0157430
953.498	0.0156237
953.576	0.0156007
953.655	0.0155486
953.733	0.0157167
953.811	0.0156522
953.889	0.0157356
953.967	0.0157703
954.045	0.0157492
954.123	0.0158252
954.201	0.0158525
954.280	0.0158022
954.358	0.0156331
954.436	0.0158606
954.514	0.0156274
954.592	0.0157764
954.670	0.0157050
954.748	0.0158369
954.826	0.0157367
954.905	0.0156339
954.983	0.0158092
955.061	0.0157224
955.139	0.0156224
955.217	0.0158297
955.295	0.0158058
955.373	0.0156562
955.451	0.0157544
955.530	0.0157452
955.608	0.0157723
955.686	0.0157141
955.764	0.0157448
955.842	0.0157713
955.920	0.0157328
955.998	0.0158165
956.076	0.0157392
956.155	0.0158410
956.233	0.0157528
956.311	0.0158446
956.389	0.0158997
956.467	0.0159677
956.545	0.0158968
956.623	0.0157736
956.701	0.0159247
956.780	0.0159650
956.858	0.0159061
956.936	0.0158222
957.014	0.0159039
957.092	0.0157504
957.170	0.0159157
957.248	0.0159618
957.326	0.0158039
957.405	0.0158231
957.483	0.0158234
957.561	0.0158753
957.639	0.0157264
957.717	0.0158356
957.795	0.0156960
957.873	0.0158485
957.951	0.0156581
958.030	0.0157462
958.108	0.0158002
958.186	0.0156983
958.264	0.0157815
958.342	0.0158369
958.420	0.0156783
958.498	0.0158325
958.576	0.0158381
958.655	0.0158752
958.733	0.0158678
958.811	0.0157961
958.889	0.0158270
958.967	0.0159427
959.045	0.0159639
959.123	0.0158396
959.201	0.0159345
959.280	0.0158361
959.358	0.0158251
959.436	0.0158363
959.514	0.0157362
959.592	0.0158556
959.670	0.0157240
959.748	0.0156694
959.826	0.0156275
959.905	0.0156721
