05/17/2022	16:54:29	Ver.	4.1	UNKNOWN
Optical Delay	639.982744	Delta X		0.078125	Sweeps	1	Scan Rate	0/0
Coordinates	Axis 1	NaN	Axis 2	NaN	Axis 3	NaN	Axis 4	NaN	Axis 5	NaN	Axis 6	0.000000
TX Power	0.000000	RX Power	0.000000

639.983	0.0156854
640.061	0.0157398
640.139	0.0158459
640.217	0.0156969
640.295	0.0156827
640.373	0.0157832
640.451	0.0155740
640.530	0.0156966
640.608	0.0157850
640.686	0.0157221
640.764	0.0157669
640.842	0.0157887
640.920	0.0158440
640.998	0.0157166
641.076	0.0157701
641.155	0.0157949
641.233	0.0158434
641.311	0.0157621
641.389	0.0156642
641.467	0.0157650
641.545	0.0159457
641.623	0.0158807
641.701	0.0156582
641.780	0.0158210
641.858	0.0157700
641.936	0.0157872
642.014	0.0158119
642.092	0.0159457
642.170	0.0157737
642.248	0.0157720
642.326	0.0157881
642.405	0.0157338
642.483	0.0157011
642.561	0.0157711
642.639	0.0157886
642.717	0.0156989
642.795	0.0157430
642.873	0.0157077
642.951	0.0156826
643.030	0.0157088
643.108	0.0157751
643.186	0.0157568
643.264	0.0157749
643.342	0.0157416
643.420	0.0156532
643.498	0.0157790
643.576	0.0159356
643.655	0.0158910
643.733	0.0157909
643.811	0.0157868
643.889	0.0157293
643.967	0.0157758
644.045	0.0158004
644.123	0.0157691
644.201	0.0156441
644.280	0.0157676
644.358	0.0157607
644.436	0.0156711
644.514	0.0155246
644.592	0.0156356
644.670	0.0156556
644.748	0.0156290
644.826	0.0156676
644.905	0.0157564
644.983	0.0157471
645.061	0.0156648
645.139	0.0157450
645.217	0.0156866
645.295	0.0156372
645.373	0.0156345
645.451	0.0156660
645.530	0.0159475
645.608	0.0158046
645.686	0.0159015
645.764	0.0157723
645.842	0.0157401
645.920	0.0158398
645.998	0.0159144
646.076	0.0158140
646.155	0.0158932
646.233	0.0159151
646.311	0.0159393
646.389	0.0157980
646.467	0.0158864
646.545	0.0157579
646.623	0.0157611
646.701	0.0157583
646.780	0.0156985
646.858	0.0157938
646.936	0.0157543
647.014	0.0156229
647.092	0.0156389
647.170	0.0156884
647.248	0.0155582
647.326	0.0155472
647.405	0.0156284
647.483	0.0155814
647.561	0.0155497
647.639	0.0159224
647.717	0.0156507
647.795	0.0156299
647.873	0.0157967
647.951	0.0158696
648.030	0.0158217
648.108	0.0158994
648.186	0.0159578
648.264	0.0159267
648.342	0.0157477
648.420	0.0159528
648.498	0.0158977
648.576	0.0159908
648.655	0.0157124
648.733	0.0156970
648.811	0.0157641
648.889	0.0155985
648.967	0.0155724
649.045	0.0156100
649.123	0.0155405
649.201	0.0155360
649.280	0.0154565
649.358	0.0154320
649.436	0.0155069
649.514	0.0153963
649.592	0.0153288
649.670	0.0154927
649.748	0.0154549
649.826	0.0154091
649.905	0.0155026
649.983	0.0156064
650.061	0.0155748
650.139	0.0157461
650.217	0.0157908
650.295	0.0158199
650.373	0.0158825
650.451	0.0158413
650.530	0.0159500
650.608	0.0158707
650.686	0.0158064
650.764	0.0159223
650.842	0.0159000
650.920	0.0159137
650.998	0.0158347
651.076	0.0158507
651.155	0.0157455
651.233	0.0157384
651.311	0.0156641
651.389	0.0156423
651.467	0.0154158
651.545	0.0155079
651.623	0.0155624
651.701	0.0155039
651.780	0.0154934
651.858	0.0155562
651.936	0.0155080
652.014	0.0156663
652.092	0.0155152
652.170	0.0155772
652.248	0.0156547
652.326	0.0158105
652.405	0.0156665
652.483	0.0157280
652.561	0.0158505
652.639	0.0158502
652.717	0.0157400
652.795	0.0158070
652.873	0.0159293
652.951	0.0158389
653.030	0.0158881
653.108	0.0159663
653.186	0.0157867
653.264	0.0158249
653.342	0.0159866
653.420	0.0159164
653.498	0.0157632
653.576	0.0155902
653.655	0.0156567
653.733	0.0157584
653.811	0.0157585
653.889	0.0157360
653.967	0.0156866
654.045	0.0156915
654.123	0.0155523
654.201	0.0156009
654.280	0.0157208
654.358	0.0156708
654.436	0.0157809
654.514	0.0157114
654.592	0.0157661
654.670	0.0155584
654.748	0.0157482
654.826	0.0156842
654.905	0.0156926
654.983	0.0157069
655.061	0.0156949
655.139	0.0156378
655.217	0.0157668
655.295	0.0158929
655.373	0.0156924
655.451	0.0158321
655.530	0.0157935
655.608	0.0157712
655.686	0.0157857
655.764	0.0157490
655.842	0.0157010
655.920	0.0156821
655.998	0.0158754
656.076	0.0157411
656.155	0.0158184
656.233	0.0159121
656.311	0.0157381
656.389	0.0158673
656.467	0.0157665
656.545	0.0157480
656.623	0.0157635
656.701	0.0158112
656.780	0.0158554
656.858	0.0156758
656.936	0.0157484
657.014	0.0157184
657.092	0.0157851
657.170	0.0156815
657.248	0.0155958
657.326	0.0156818
657.405	0.0156752
657.483	0.0156738
657.561	0.0157684
657.639	0.0157069
657.717	0.0158923
657.795	0.0156324
657.873	0.0156905
657.951	0.0157978
658.030	0.0159055
658.108	0.0158485
658.186	0.0157832
658.264	0.0158340
658.342	0.0158400
658.420	0.0159520
658.498	0.0158602
658.576	0.0157726
658.655	0.0158678
658.733	0.0158453
658.811	0.0157858
658.889	0.0157442
658.967	0.0156609
659.045	0.0156257
659.123	0.0156155
659.201	0.0157131
659.280	0.0156629
659.358	0.0156805
659.436	0.0156715
659.514	0.0156598
659.592	0.0154498
659.670	0.0157539
659.748	0.0157962
659.826	0.0157358
659.905	0.0157595
659.983	0.0157642
660.061	0.0157941
660.139	0.0158190
660.217	0.0159789
660.295	0.0159048
660.373	0.0160629
660.451	0.0157381
660.530	0.0158764
660.608	0.0160081
660.686	0.0159727
660.764	0.0158196
660.842	0.0157880
660.920	0.0158241
660.998	0.0157037
661.076	0.0157713
661.155	0.0158393
661.233	0.0157607
661.311	0.0156956
661.389	0.0155717
661.467	0.0155685
661.545	0.0156133
661.623	0.0155986
661.701	0.0154700
661.780	0.0155138
661.858	0.0157143
661.936	0.0156174
662.014	0.0155704
662.092	0.0155422
662.170	0.0156387
662.248	0.0156804
662.326	0.0157179
662.405	0.0157830
662.483	0.0158930
662.561	0.0158732
662.639	0.0158788
662.717	0.0158278
662.795	0.0157778
662.873	0.0158487
662.951	0.0158334
663.030	0.0157995
663.108	0.0159026
663.186	0.0157454
663.264	0.0158478
663.342	0.0157823
663.420	0.0156914
663.498	0.0156174
663.576	0.0155943
663.655	0.0154986
663.733	0.0153860
663.811	0.0154118
663.889	0.0154408
663.967	0.0153741
664.045	0.0153905
664.123	0.0152470
664.201	0.0153667
664.280	0.0153944
664.358	0.0153370
664.436	0.0154637
664.514	0.0156368
664.592	0.0155412
664.670	0.0157554
664.748	0.0157336
664.826	0.0158129
664.905	0.0158592
664.983	0.0158880
665.061	0.0157732
665.139	0.0159260
665.217	0.0159775
665.295	0.0158203
665.373	0.0157660
665.451	0.0158038
665.530	0.0157072
665.608	0.0154996
665.686	0.0155469
665.764	0.0155182
665.842	0.0155971
665.920	0.0153664
665.998	0.0152622
666.076	0.0152531
666.155	0.0153117
666.233	0.0152985
666.311	0.0151984
666.389	0.0154269
666.467	0.0153600
666.545	0.0154236
666.623	0.0155605
666.701	0.0156389
666.780	0.0157571
666.858	0.0159657
666.936	0.0158450
667.014	0.0159391
667.092	0.0161230
667.170	0.0160863
667.248	0.0160705
667.326	0.0160665
667.405	0.0161117
667.483	0.0162851
667.561	0.0159945
667.639	0.0160497
667.717	0.0160494
667.795	0.0160725
667.873	0.0159002
667.951	0.0158232
668.030	0.0157737
668.108	0.0157977
668.186	0.0156398
668.264	0.0157371
668.342	0.0157249
668.420	0.0155531
668.498	0.0157686
668.576	0.0158299
668.655	0.0158384
668.733	0.0157119
668.811	0.0157419
668.889	0.0158765
668.967	0.0159056
669.045	0.0159576
669.123	0.0160156
669.201	0.0160795
669.280	0.0161570
669.358	0.0159627
669.436	0.0158149
669.514	0.0160127
669.592	0.0159602
669.670	0.0159028
669.748	0.0158525
669.826	0.0159167
669.905	0.0159918
669.983	0.0159620
670.061	0.0158714
670.139	0.0158095
670.217	0.0158791
670.295	0.0157079
670.373	0.0158076
670.451	0.0156951
670.530	0.0155872
670.608	0.0156796
670.686	0.0157146
670.764	0.0155598
670.842	0.0154676
670.920	0.0155640
670.998	0.0156749
671.076	0.0155753
671.155	0.0154979
671.233	0.0155759
671.311	0.0154648
671.389	0.0154121
671.467	0.0152781
671.545	0.0152300
671.623	0.0153635
671.701	0.0153529
671.780	0.0153358
671.858	0.0152699
671.936	0.0153758
672.014	0.0154593
672.092	0.0152641
672.170	0.0153671
672.248	0.0154966
672.326	0.0155252
672.405	0.0155305
672.483	0.0156221
672.561	0.0155907
672.639	0.0157163
672.717	0.0156885
672.795	0.0157281
672.873	0.0158333
672.951	0.0155583
673.030	0.0156489
673.108	0.0157499
673.186	0.0156887
673.264	0.0156834
673.342	0.0154380
673.420	0.0154975
673.498	0.0155164
673.576	0.0153851
673.655	0.0153429
673.733	0.0153752
673.811	0.0152628
673.889	0.0153577
673.967	0.0154424
674.045	0.0154340
674.123	0.0155129
674.201	0.0156492
674.280	0.0156773
674.358	0.0157198
674.436	0.0158336
674.514	0.0160537
674.592	0.0159538
674.670	0.0159109
674.748	0.0160596
674.826	0.0159431
674.905	0.0161206
674.983	0.0159908
675.061	0.0160667
675.139	0.0161481
675.217	0.0161523
675.295	0.0161819
675.373	0.0160648
675.451	0.0159790
675.530	0.0161849
675.608	0.0162299
675.686	0.0161001
675.764	0.0162502
675.842	0.0160686
675.920	0.0161040
675.998	0.0162003
676.076	0.0160031
676.155	0.0162018
676.233	0.0160169
676.311	0.0160018
676.389	0.0161181
676.467	0.0161182
676.545	0.0161125
676.623	0.0158798
676.701	0.0158474
676.780	0.0156554
676.858	0.0158173
676.936	0.0157512
677.014	0.0157461
677.092	0.0157931
677.170	0.0156979
677.248	0.0156258
677.326	0.0156827
677.405	0.0157145
677.483	0.0157036
677.561	0.0157122
677.639	0.0157713
677.717	0.0156670
677.795	0.0156476
677.873	0.0157310
677.951	0.0155827
678.030	0.0156712
678.108	0.0156787
678.186	0.0155964
678.264	0.0156413
678.342	0.0156614
678.420	0.0155587
678.498	0.0155544
678.576	0.0156168
678.655	0.0158421
678.733	0.0156644
678.811	0.0156477
678.889	0.0158816
678.967	0.0159451
679.045	0.0159373
679.123	0.0160835
679.201	0.0161797
679.280	0.0161049
679.358	0.0161663
679.436	0.0160963
679.514	0.0164787
679.592	0.0163607
679.670	0.0162840
679.748	0.0163110
679.826	0.0163375
679.905	0.0162818
679.983	0.0163333
680.061	0.0162583
680.139	0.0162123
680.217	0.0158666
680.295	0.0157978
680.373	0.0158887
680.451	0.0156719
680.530	0.0155289
680.608	0.0155292
680.686	0.0151944
680.764	0.0149615
680.842	0.0148480
680.920	0.0147120
680.998	0.0145731
681.076	0.0144890
681.155	0.0143864
681.233	0.0144441
681.311	0.0145715
681.389	0.0145368
681.467	0.0144482
681.545	0.0145747
681.623	0.0148051
681.701	0.0149203
681.780	0.0150258
681.858	0.0151128
681.936	0.0153048
682.014	0.0154126
682.092	0.0156948
682.170	0.0159298
682.248	0.0160736
682.326	0.0161568
682.405	0.0164552
682.483	0.0165096
682.561	0.0164945
682.639	0.0165874
682.717	0.0166839
682.795	0.0168427
682.873	0.0168304
682.951	0.0168177
683.030	0.0168352
683.108	0.0166850
683.186	0.0166580
683.264	0.0166367
683.342	0.0165232
683.420	0.0163487
683.498	0.0161807
683.576	0.0160920
683.655	0.0159064
683.733	0.0157310
683.811	0.0154985
683.889	0.0154189
683.967	0.0152538
684.045	0.0151130
684.123	0.0150266
684.201	0.0149332
684.280	0.0150074
684.358	0.0149080
684.436	0.0148340
684.514	0.0149618
684.592	0.0150806
684.670	0.0149988
684.748	0.0149734
684.826	0.0152236
684.905	0.0152237
684.983	0.0155507
685.061	0.0156519
685.139	0.0156969
685.217	0.0157430
685.295	0.0158373
685.373	0.0160124
685.451	0.0162469
685.530	0.0163375
685.608	0.0164474
685.686	0.0166953
685.764	0.0165088
685.842	0.0165176
685.920	0.0166794
685.998	0.0166637
686.076	0.0166269
686.155	0.0165019
686.233	0.0166616
686.311	0.0165520
686.389	0.0164075
686.467	0.0161863
686.545	0.0160483
686.623	0.0158488
686.701	0.0158482
686.780	0.0158264
686.858	0.0154862
686.936	0.0153526
687.014	0.0151977
687.092	0.0151759
687.170	0.0148979
687.248	0.0150029
687.326	0.0149100
687.405	0.0146275
687.483	0.0147172
687.561	0.0147578
687.639	0.0147714
687.717	0.0145161
687.795	0.0145273
687.873	0.0146056
687.951	0.0146345
688.030	0.0146978
688.108	0.0147984
688.186	0.0149213
688.264	0.0150999
688.342	0.0152100
688.420	0.0153970
688.498	0.0156517
688.576	0.0157391
688.655	0.0159328
688.733	0.0162807
688.811	0.0163235
688.889	0.0164508
688.967	0.0168178
689.045	0.0168766
689.123	0.0168980
689.201	0.0167899
689.280	0.0169855
689.358	0.0169917
689.436	0.0168821
689.514	0.0166999
689.592	0.0167365
689.670	0.0165395
689.748	0.0163093
689.826	0.0160653
689.905	0.0159048
689.983	0.0158129
690.061	0.0155769
690.139	0.0155006
690.217	0.0153627
690.295	0.0153079
690.373	0.0151535
690.451	0.0150182
690.530	0.0151326
690.608	0.0151604
690.686	0.0152802
690.764	0.0152467
690.842	0.0154102
690.920	0.0155307
690.998	0.0156332
691.076	0.0155641
691.155	0.0157143
691.233	0.0157318
691.311	0.0157460
691.389	0.0156780
691.467	0.0157017
691.545	0.0156842
691.623	0.0156869
691.701	0.0156592
691.780	0.0153930
691.858	0.0152834
691.936	0.0154810
692.014	0.0152726
692.092	0.0152082
692.170	0.0151878
692.248	0.0151752
692.326	0.0152501
692.405	0.0152470
692.483	0.0151800
692.561	0.0153699
692.639	0.0157167
692.717	0.0156463
692.795	0.0156462
692.873	0.0158997
692.951	0.0160426
693.030	0.0159696
693.108	0.0160548
693.186	0.0161862
693.264	0.0162260
693.342	0.0161993
693.420	0.0160080
693.498	0.0161224
693.576	0.0161908
693.655	0.0160211
693.733	0.0159589
693.811	0.0159942
693.889	0.0158472
693.967	0.0158719
694.045	0.0157553
694.123	0.0157385
694.201	0.0158725
694.280	0.0159156
694.358	0.0159019
694.436	0.0159069
694.514	0.0158836
694.592	0.0157645
694.670	0.0158572
694.748	0.0157612
694.826	0.0157370
694.905	0.0156319
694.983	0.0157281
695.061	0.0155533
695.139	0.0154652
695.217	0.0154704
695.295	0.0154335
695.373	0.0151733
695.451	0.0152237
695.530	0.0151282
695.608	0.0152147
695.686	0.0152649
695.764	0.0152384
695.842	0.0152187
695.920	0.0152462
695.998	0.0152408
696.076	0.0152852
696.155	0.0153867
696.233	0.0155276
696.311	0.0155050
696.389	0.0157520
696.467	0.0159696
696.545	0.0158755
696.623	0.0162027
696.701	0.0159424
696.780	0.0161361
696.858	0.0163759
696.936	0.0164022
697.014	0.0164348
697.092	0.0163824
697.170	0.0165511
697.248	0.0165477
697.326	0.0165404
697.405	0.0164291
697.483	0.0164193
697.561	0.0165332
697.639	0.0163239
697.717	0.0164349
697.795	0.0162818
697.873	0.0160988
697.951	0.0160983
698.030	0.0161641
698.108	0.0159653
698.186	0.0160279
698.264	0.0161729
698.342	0.0161195
698.420	0.0159293
698.498	0.0160277
698.576	0.0161565
698.655	0.0159719
698.733	0.0160172
698.811	0.0157969
698.889	0.0158210
698.967	0.0158324
699.045	0.0157138
699.123	0.0155638
699.201	0.0154068
699.280	0.0152234
699.358	0.0152921
699.436	0.0150712
699.514	0.0149129
699.592	0.0149422
699.670	0.0150469
699.748	0.0148680
699.826	0.0147283
699.905	0.0147544
699.983	0.0147514
700.061	0.0148847
700.139	0.0150192
700.217	0.0150959
700.295	0.0151620
700.373	0.0153468
700.451	0.0154573
700.530	0.0155079
700.608	0.0154987
700.686	0.0155634
700.764	0.0156225
700.842	0.0155517
700.920	0.0155199
700.998	0.0154181
701.076	0.0153353
701.155	0.0154053
701.233	0.0154745
701.311	0.0153873
701.389	0.0154635
701.467	0.0155308
701.545	0.0153850
701.623	0.0156427
701.701	0.0158837
701.780	0.0157574
701.858	0.0160114
701.936	0.0161537
702.014	0.0160765
702.092	0.0161633
702.170	0.0161829
702.248	0.0162406
702.326	0.0164312
702.405	0.0163159
702.483	0.0164314
702.561	0.0163366
702.639	0.0162484
702.717	0.0161036
702.795	0.0161111
702.873	0.0159243
702.951	0.0159282
703.030	0.0157674
703.108	0.0157786
703.186	0.0158046
703.264	0.0157205
703.342	0.0157181
703.420	0.0158686
703.498	0.0158879
703.576	0.0156926
703.655	0.0156693
703.733	0.0156377
703.811	0.0157532
703.889	0.0157525
703.967	0.0157406
704.045	0.0156115
704.123	0.0157268
704.201	0.0156923
704.280	0.0156390
704.358	0.0156693
704.436	0.0157001
704.514	0.0156719
704.592	0.0158754
704.670	0.0158156
704.748	0.0158691
704.826	0.0158409
704.905	0.0159158
704.983	0.0159029
705.061	0.0159687
705.139	0.0159514
705.217	0.0161119
705.295	0.0159401
705.373	0.0158639
705.451	0.0159561
705.530	0.0159570
705.608	0.0158727
705.686	0.0157390
705.764	0.0157271
705.842	0.0156300
705.920	0.0155439
705.998	0.0155408
706.076	0.0153840
706.155	0.0152128
706.233	0.0151485
706.311	0.0151402
706.389	0.0150829
706.467	0.0149444
706.545	0.0148714
706.623	0.0149053
706.701	0.0148279
706.780	0.0147844
706.858	0.0146663
706.936	0.0146971
707.014	0.0148943
707.092	0.0147600
707.170	0.0147820
707.248	0.0147103
707.326	0.0147958
707.405	0.0148978
707.483	0.0150571
707.561	0.0148424
707.639	0.0149989
707.717	0.0151440
707.795	0.0152384
707.873	0.0154383
707.951	0.0155446
708.030	0.0157475
708.108	0.0157600
708.186	0.0159746
708.264	0.0159628
708.342	0.0161302
708.420	0.0163215
708.498	0.0164480
708.576	0.0164674
708.655	0.0165417
708.733	0.0167840
708.811	0.0169133
708.889	0.0168467
708.967	0.0167472
709.045	0.0168778
709.123	0.0168737
709.201	0.0168468
709.280	0.0167988
709.358	0.0165668
709.436	0.0164726
709.514	0.0163414
709.592	0.0163742
709.670	0.0164217
709.748	0.0163925
709.826	0.0163487
709.905	0.0162892
709.983	0.0163490
710.061	0.0162926
710.139	0.0164053
710.217	0.0163984
710.295	0.0163501
710.373	0.0162119
710.451	0.0162589
710.530	0.0161123
710.608	0.0159711
710.686	0.0157199
710.764	0.0155358
710.842	0.0154911
710.920	0.0153351
710.998	0.0152012
711.076	0.0149506
711.155	0.0148990
711.233	0.0148367
711.311	0.0146804
711.389	0.0145930
711.467	0.0145232
711.545	0.0145738
711.623	0.0146582
711.701	0.0145364
711.780	0.0146410
711.858	0.0146635
711.936	0.0148203
712.014	0.0147929
712.092	0.0148085
712.170	0.0149358
712.248	0.0149613
712.326	0.0150166
712.405	0.0149886
712.483	0.0151067
712.561	0.0152213
712.639	0.0151143
712.717	0.0152837
712.795	0.0153362
712.873	0.0153008
712.951	0.0154395
713.030	0.0154809
713.108	0.0155202
713.186	0.0153209
713.264	0.0156397
713.342	0.0158366
713.420	0.0158044
713.498	0.0158791
713.576	0.0159003
713.655	0.0160855
713.733	0.0162064
713.811	0.0162469
713.889	0.0163959
713.967	0.0164279
714.045	0.0165188
714.123	0.0166595
714.201	0.0166702
714.280	0.0167295
714.358	0.0167718
714.436	0.0167203
714.514	0.0166090
714.592	0.0166357
714.670	0.0165453
714.748	0.0164969
714.826	0.0165611
714.905	0.0164500
714.983	0.0163077
715.061	0.0160443
715.139	0.0158873
715.217	0.0157377
715.295	0.0156417
715.373	0.0155250
715.451	0.0154979
715.530	0.0152703
715.608	0.0152166
715.686	0.0150953
715.764	0.0150612
715.842	0.0150266
715.920	0.0150378
715.998	0.0150049
716.076	0.0148259
716.155	0.0148836
716.233	0.0150293
716.311	0.0150046
716.389	0.0151393
716.467	0.0151501
716.545	0.0152848
716.623	0.0154127
716.701	0.0154185
716.780	0.0155981
716.858	0.0157682
716.936	0.0157716
717.014	0.0158700
717.092	0.0160336
717.170	0.0158775
717.248	0.0160188
717.326	0.0160502
717.405	0.0160683
717.483	0.0161458
717.561	0.0160905
717.639	0.0161069
717.717	0.0162453
717.795	0.0161433
717.873	0.0159809
717.951	0.0160347
718.030	0.0157934
718.108	0.0157900
718.186	0.0157738
718.264	0.0158269
718.342	0.0157600
718.420	0.0158343
718.498	0.0157885
718.576	0.0158874
718.655	0.0158504
718.733	0.0156594
718.811	0.0157409
718.889	0.0158186
718.967	0.0157851
719.045	0.0156251
719.123	0.0156600
719.201	0.0157236
719.280	0.0158260
719.358	0.0158598
719.436	0.0157178
719.514	0.0157341
719.592	0.0158598
719.670	0.0157122
719.748	0.0157686
719.826	0.0158942
719.905	0.0159929
719.983	0.0159666
720.061	0.0159900
720.139	0.0160836
720.217	0.0160581
720.295	0.0161507
720.373	0.0159884
720.451	0.0159138
720.530	0.0160270
720.608	0.0160674
720.686	0.0159649
720.764	0.0159319
720.842	0.0158157
720.920	0.0157548
720.998	0.0156755
721.076	0.0155725
721.155	0.0156625
721.233	0.0155990
721.311	0.0155872
721.389	0.0155308
721.467	0.0155997
721.545	0.0156963
721.623	0.0154897
721.701	0.0156659
721.780	0.0157355
721.858	0.0156780
721.936	0.0156133
722.014	0.0157328
722.092	0.0159361
722.170	0.0158326
722.248	0.0158479
722.326	0.0158523
722.405	0.0159529
722.483	0.0158872
722.561	0.0158081
722.639	0.0155993
722.717	0.0155879
722.795	0.0153517
722.873	0.0151871
722.951	0.0150043
723.030	0.0148150
723.108	0.0148334
723.186	0.0146046
723.264	0.0144170
723.342	0.0144465
723.420	0.0143047
723.498	0.0143414
723.576	0.0144813
723.655	0.0145055
723.733	0.0146986
723.811	0.0147672
723.889	0.0147919
723.967	0.0150291
724.045	0.0152054
724.123	0.0155113
724.201	0.0157885
724.280	0.0160397
724.358	0.0162802
724.436	0.0164645
724.514	0.0165827
724.592	0.0168379
724.670	0.0168688
724.748	0.0170064
724.826	0.0172350
724.905	0.0173901
724.983	0.0174253
725.061	0.0172743
725.139	0.0174365
725.217	0.0174352
725.295	0.0171730
725.373	0.0172337
725.451	0.0169846
725.530	0.0170805
725.608	0.0168857
725.686	0.0168073
725.764	0.0167867
725.842	0.0164516
725.920	0.0164606
725.998	0.0163622
726.076	0.0163585
726.155	0.0163480
726.233	0.0161418
726.311	0.0160231
726.389	0.0159718
726.467	0.0156830
726.545	0.0155723
726.623	0.0155195
726.701	0.0152154
726.780	0.0151775
726.858	0.0152525
726.936	0.0150657
727.014	0.0147721
727.092	0.0148519
727.170	0.0147434
727.248	0.0146497
727.326	0.0144054
727.405	0.0144251
727.483	0.0143633
727.561	0.0142900
727.639	0.0143346
727.717	0.0142592
727.795	0.0141959
727.873	0.0142667
727.951	0.0142168
728.030	0.0144641
728.108	0.0144610
728.186	0.0144483
728.264	0.0145729
728.342	0.0147616
728.420	0.0149399
728.498	0.0150709
728.576	0.0152124
728.655	0.0153371
728.733	0.0154315
728.811	0.0155806
728.889	0.0156396
728.967	0.0158646
729.045	0.0159436
729.123	0.0160910
729.201	0.0160375
729.280	0.0161777
729.358	0.0162347
729.436	0.0163640
729.514	0.0163235
729.592	0.0162262
729.670	0.0164550
729.748	0.0163928
729.826	0.0162264
729.905	0.0162757
729.983	0.0160606
730.061	0.0161067
730.139	0.0158824
730.217	0.0158185
730.295	0.0158483
730.373	0.0157461
730.451	0.0156336
730.530	0.0155854
730.608	0.0155800
730.686	0.0154860
730.764	0.0154795
730.842	0.0154266
730.920	0.0155603
730.998	0.0157162
731.076	0.0156874
731.155	0.0156195
731.233	0.0158578
731.311	0.0159756
731.389	0.0158797
731.467	0.0160524
731.545	0.0161118
731.623	0.0161604
731.701	0.0161922
731.780	0.0162687
731.858	0.0162252
731.936	0.0162197
732.014	0.0163259
732.092	0.0163410
732.170	0.0163800
732.248	0.0164861
732.326	0.0164232
732.405	0.0164249
732.483	0.0164072
732.561	0.0165044
732.639	0.0164526
732.717	0.0165765
732.795	0.0165090
732.873	0.0165408
732.951	0.0164582
733.030	0.0164036
733.108	0.0165234
733.186	0.0165356
733.264	0.0165423
733.342	0.0164216
733.420	0.0164271
733.498	0.0162064
733.576	0.0161225
733.655	0.0161584
733.733	0.0160388
733.811	0.0159550
733.889	0.0155647
733.967	0.0154571
734.045	0.0154053
734.123	0.0153593
734.201	0.0151036
734.280	0.0150101
734.358	0.0147112
734.436	0.0145624
734.514	0.0143599
734.592	0.0145143
734.670	0.0142770
734.748	0.0140217
734.826	0.0139593
734.905	0.0140121
734.983	0.0138449
735.061	0.0138849
735.139	0.0140074
735.217	0.0139742
735.295	0.0140430
735.373	0.0142451
735.451	0.0142342
735.530	0.0144549
735.608	0.0147141
735.686	0.0147686
735.764	0.0149703
735.842	0.0151716
735.920	0.0153246
735.998	0.0155356
736.076	0.0156230
736.155	0.0157570
736.233	0.0161034
736.311	0.0161371
736.389	0.0159927
736.467	0.0162190
736.545	0.0162421
736.623	0.0164179
736.701	0.0164621
736.780	0.0164800
736.858	0.0167348
736.936	0.0165398
737.014	0.0167507
737.092	0.0169092
737.170	0.0168114
737.248	0.0169418
737.326	0.0170681
737.405	0.0170146
737.483	0.0169845
737.561	0.0171237
737.639	0.0170245
737.717	0.0169837
737.795	0.0170222
737.873	0.0169302
737.951	0.0168073
738.030	0.0165885
738.108	0.0163377
738.186	0.0162531
738.264	0.0161111
738.342	0.0159097
738.420	0.0157431
738.498	0.0156020
738.576	0.0154209
738.655	0.0152002
738.733	0.0150446
738.811	0.0150861
738.889	0.0151515
738.967	0.0150147
739.045	0.0149981
739.123	0.0151808
739.201	0.0152394
739.280	0.0153740
739.358	0.0154527
739.436	0.0156646
739.514	0.0157935
739.592	0.0159166
739.670	0.0160396
739.748	0.0160841
739.826	0.0163085
739.905	0.0163396
739.983	0.0164899
740.061	0.0165137
740.139	0.0166290
740.217	0.0165903
740.295	0.0167287
740.373	0.0166225
740.451	0.0164705
740.530	0.0164680
740.608	0.0163804
740.686	0.0162547
740.764	0.0162664
740.842	0.0160873
740.920	0.0159375
740.998	0.0159319
741.076	0.0156633
741.155	0.0155291
741.233	0.0155608
741.311	0.0154595
741.389	0.0152254
741.467	0.0152680
741.545	0.0152882
741.623	0.0151030
741.701	0.0151366
741.780	0.0149082
741.858	0.0149649
741.936	0.0149366
742.014	0.0146859
742.092	0.0145572
742.170	0.0146983
742.248	0.0146745
742.326	0.0145789
742.405	0.0146332
742.483	0.0146074
742.561	0.0144820
742.639	0.0145387
742.717	0.0144386
742.795	0.0144949
742.873	0.0144855
742.951	0.0144609
743.030	0.0144788
743.108	0.0146436
743.186	0.0148778
743.264	0.0147972
743.342	0.0148944
743.420	0.0150034
743.498	0.0151302
743.576	0.0152113
743.655	0.0151721
743.733	0.0154732
743.811	0.0155562
743.889	0.0157414
743.967	0.0159130
744.045	0.0160606
744.123	0.0161675
744.201	0.0162829
744.280	0.0164798
744.358	0.0165995
744.436	0.0167183
744.514	0.0169243
744.592	0.0171088
744.670	0.0172183
744.748	0.0171902
744.826	0.0172739
744.905	0.0174317
744.983	0.0174253
745.061	0.0175224
745.139	0.0175126
745.217	0.0174350
745.295	0.0173938
745.373	0.0172758
745.451	0.0173056
745.530	0.0172610
745.608	0.0171646
745.686	0.0169453
745.764	0.0168484
745.842	0.0166815
745.920	0.0162113
745.998	0.0159917
746.076	0.0156559
746.155	0.0155672
746.233	0.0153477
746.311	0.0151453
746.389	0.0149358
746.467	0.0147942
746.545	0.0147228
746.623	0.0147267
746.701	0.0146008
746.780	0.0146827
746.858	0.0145193
746.936	0.0146439
747.014	0.0147002
747.092	0.0148832
747.170	0.0149779
747.248	0.0152016
747.326	0.0151730
747.405	0.0154758
747.483	0.0156490
747.561	0.0158121
747.639	0.0159113
747.717	0.0159406
747.795	0.0160485
747.873	0.0163281
747.951	0.0164864
748.030	0.0163386
748.108	0.0165160
748.186	0.0165125
748.264	0.0163706
748.342	0.0162218
748.420	0.0162661
748.498	0.0162965
748.576	0.0160233
748.655	0.0158469
748.733	0.0158244
748.811	0.0157147
748.889	0.0154860
748.967	0.0153821
749.045	0.0154193
749.123	0.0152991
749.201	0.0150487
749.280	0.0149113
749.358	0.0148154
749.436	0.0149230
749.514	0.0149014
749.592	0.0148443
749.670	0.0148750
749.748	0.0149897
749.826	0.0148716
749.905	0.0149980
749.983	0.0150055
750.061	0.0149104
750.139	0.0149165
750.217	0.0148259
750.295	0.0149414
750.373	0.0147144
750.451	0.0147060
750.530	0.0147636
750.608	0.0148079
750.686	0.0147413
750.764	0.0149320
750.842	0.0148272
750.920	0.0149615
750.998	0.0150197
751.076	0.0150268
751.155	0.0152238
751.233	0.0153248
751.311	0.0152961
751.389	0.0154852
751.467	0.0156773
751.545	0.0158445
751.623	0.0158822
751.701	0.0160857
751.780	0.0161945
751.858	0.0162324
751.936	0.0162774
752.014	0.0164752
752.092	0.0164796
752.170	0.0165534
752.248	0.0168106
752.326	0.0168069
752.405	0.0167085
752.483	0.0168571
752.561	0.0170148
752.639	0.0170650
752.717	0.0170708
752.795	0.0170374
752.873	0.0171143
752.951	0.0171294
753.030	0.0172450
753.108	0.0172852
753.186	0.0173189
753.264	0.0172358
753.342	0.0172382
753.420	0.0171313
753.498	0.0169127
753.576	0.0167868
753.655	0.0167203
753.733	0.0164616
753.811	0.0162473
753.889	0.0159267
753.967	0.0155906
754.045	0.0154044
754.123	0.0149718
754.201	0.0149006
754.280	0.0146584
754.358	0.0145624
754.436	0.0144163
754.514	0.0142915
754.592	0.0142920
754.670	0.0143760
754.748	0.0142191
754.826	0.0145072
754.905	0.0146532
754.983	0.0147652
755.061	0.0149578
755.139	0.0151676
755.217	0.0154759
755.295	0.0157717
755.373	0.0158652
755.451	0.0161201
755.530	0.0163229
755.608	0.0165217
755.686	0.0166289
755.764	0.0166438
755.842	0.0166792
755.920	0.0167166
755.998	0.0167665
756.076	0.0167162
756.155	0.0167101
756.233	0.0165456
756.311	0.0164422
756.389	0.0163020
756.467	0.0158817
756.545	0.0157141
756.623	0.0155685
756.701	0.0152959
756.780	0.0152977
756.858	0.0150595
756.936	0.0149698
757.014	0.0149197
757.092	0.0148129
757.170	0.0147251
757.248	0.0147906
757.326	0.0148371
757.405	0.0148337
757.483	0.0148636
757.561	0.0149953
757.639	0.0152075
757.717	0.0150022
757.795	0.0150948
757.873	0.0152379
757.951	0.0152077
758.030	0.0152377
758.108	0.0152959
758.186	0.0153017
758.264	0.0152139
758.342	0.0151793
758.420	0.0149796
758.498	0.0150786
758.576	0.0151852
758.655	0.0151711
758.733	0.0151469
758.811	0.0152372
758.889	0.0153024
758.967	0.0154225
759.045	0.0154648
759.123	0.0155676
759.201	0.0155908
759.280	0.0156644
759.358	0.0157713
759.436	0.0159377
759.514	0.0161047
759.592	0.0161082
759.670	0.0162213
759.748	0.0164593
759.826	0.0164607
759.905	0.0166333
759.983	0.0165222
760.061	0.0167590
760.139	0.0168365
760.217	0.0168739
760.295	0.0169450
760.373	0.0170046
760.451	0.0170052
760.530	0.0170792
760.608	0.0170937
760.686	0.0172040
760.764	0.0170345
760.842	0.0171685
760.920	0.0170674
760.998	0.0169419
761.076	0.0169073
761.155	0.0171664
761.233	0.0169234
761.311	0.0167931
761.389	0.0167027
761.467	0.0164841
761.545	0.0162817
761.623	0.0161494
761.701	0.0160085
761.780	0.0157333
761.858	0.0154987
761.936	0.0151263
762.014	0.0149626
762.092	0.0147398
762.170	0.0145443
762.248	0.0145148
762.326	0.0144473
762.405	0.0141619
762.483	0.0141428
762.561	0.0143378
762.639	0.0145225
762.717	0.0144516
762.795	0.0145660
762.873	0.0148129
762.951	0.0150789
763.030	0.0151169
763.108	0.0154568
763.186	0.0156159
763.264	0.0157853
763.342	0.0160366
763.420	0.0161434
763.498	0.0163984
763.576	0.0163804
763.655	0.0165248
763.733	0.0165123
763.811	0.0163824
763.889	0.0164885
763.967	0.0163369
764.045	0.0161682
764.123	0.0159112
764.201	0.0158239
764.280	0.0157434
764.358	0.0154742
764.436	0.0151791
764.514	0.0150083
764.592	0.0147417
764.670	0.0147724
764.748	0.0146594
764.826	0.0145634
764.905	0.0146062
764.983	0.0145973
765.061	0.0145425
765.139	0.0146258
765.217	0.0148378
765.295	0.0147793
765.373	0.0149275
765.451	0.0152720
765.530	0.0152838
765.608	0.0153107
765.686	0.0154207
765.764	0.0155355
765.842	0.0155635
765.920	0.0155239
765.998	0.0156599
766.076	0.0157445
766.155	0.0157359
766.233	0.0157754
766.311	0.0156576
766.389	0.0156187
766.467	0.0157587
766.545	0.0157187
766.623	0.0156682
766.701	0.0157002
766.780	0.0157373
766.858	0.0156979
766.936	0.0157239
767.014	0.0159917
767.092	0.0159005
767.170	0.0160281
767.248	0.0160683
767.326	0.0160168
767.405	0.0162689
767.483	0.0162276
767.561	0.0162419
767.639	0.0163516
767.717	0.0165051
767.795	0.0166041
767.873	0.0165743
767.951	0.0165540
768.030	0.0166581
768.108	0.0166682
768.186	0.0165643
768.264	0.0166802
768.342	0.0166612
768.420	0.0167582
768.498	0.0167782
768.576	0.0165881
768.655	0.0166282
768.733	0.0166209
768.811	0.0166553
768.889	0.0165702
768.967	0.0166640
769.045	0.0165327
769.123	0.0163829
769.201	0.0163642
769.280	0.0162058
769.358	0.0162699
769.436	0.0161745
769.514	0.0159969
769.592	0.0156769
769.670	0.0155743
769.748	0.0155048
769.826	0.0152536
769.905	0.0150682
769.983	0.0149343
770.061	0.0147754
770.139	0.0146272
770.217	0.0144124
770.295	0.0144402
770.373	0.0143191
770.451	0.0142982
770.530	0.0143694
770.608	0.0144447
770.686	0.0145471
770.764	0.0146316
770.842	0.0148561
770.920	0.0150770
770.998	0.0152173
771.076	0.0154247
771.155	0.0155716
771.233	0.0157625
771.311	0.0159008
771.389	0.0159422
771.467	0.0159975
771.545	0.0163422
771.623	0.0162071
771.701	0.0162404
771.780	0.0162376
771.858	0.0160292
771.936	0.0161034
772.014	0.0159782
772.092	0.0159212
772.170	0.0157774
772.248	0.0158136
772.326	0.0154215
772.405	0.0152192
772.483	0.0151015
772.561	0.0150139
772.639	0.0147900
772.717	0.0148459
772.795	0.0147490
772.873	0.0147562
772.951	0.0149207
773.030	0.0148982
773.108	0.0148799
773.186	0.0150896
773.264	0.0150669
773.342	0.0152388
773.420	0.0154017
773.498	0.0155359
773.576	0.0156406
773.655	0.0158352
773.733	0.0159222
773.811	0.0159955
773.889	0.0160414
773.967	0.0161047
774.045	0.0162203
774.123	0.0162152
774.201	0.0161945
774.280	0.0160665
774.358	0.0161273
774.436	0.0160817
774.514	0.0161349
774.592	0.0159771
774.670	0.0159870
774.748	0.0157750
774.826	0.0157956
774.905	0.0158065
774.983	0.0158818
775.061	0.0158920
775.139	0.0159123
775.217	0.0158932
775.295	0.0160090
775.373	0.0162263
775.451	0.0161081
775.530	0.0159358
775.608	0.0161808
775.686	0.0162983
775.764	0.0162547
775.842	0.0163226
775.920	0.0163387
775.998	0.0163091
776.076	0.0163451
776.155	0.0163593
776.233	0.0162177
776.311	0.0162812
776.389	0.0163859
776.467	0.0163509
776.545	0.0162852
776.623	0.0163464
776.701	0.0163614
776.780	0.0162048
776.858	0.0162698
776.936	0.0162423
777.014	0.0161634
777.092	0.0162634
777.170	0.0161238
777.248	0.0160591
777.326	0.0160849
777.405	0.0160595
777.483	0.0158698
777.561	0.0157780
777.639	0.0156190
777.717	0.0155693
777.795	0.0153914
777.873	0.0153213
777.951	0.0152702
778.030	0.0150420
778.108	0.0150104
778.186	0.0150806
778.264	0.0148944
778.342	0.0148183
778.420	0.0148441
778.498	0.0148306
778.576	0.0150436
778.655	0.0151836
778.733	0.0152372
778.811	0.0153581
778.889	0.0154144
778.967	0.0154207
779.045	0.0156731
779.123	0.0156804
779.201	0.0157903
779.280	0.0159534
779.358	0.0159898
779.436	0.0160481
779.514	0.0160096
779.592	0.0160617
779.670	0.0160078
779.748	0.0161813
779.826	0.0160337
779.905	0.0159500
779.983	0.0157943
780.061	0.0157363
780.139	0.0156725
780.217	0.0156055
780.295	0.0155009
780.373	0.0152865
780.451	0.0150585
780.530	0.0150553
780.608	0.0150900
780.686	0.0149204
780.764	0.0150653
780.842	0.0150307
780.920	0.0149422
780.998	0.0150542
781.076	0.0152718
781.155	0.0151488
781.233	0.0154086
781.311	0.0154377
781.389	0.0155055
781.467	0.0156979
781.545	0.0157700
781.623	0.0157442
781.701	0.0157494
781.780	0.0160014
781.858	0.0161189
781.936	0.0160362
782.014	0.0160819
782.092	0.0159125
782.170	0.0161207
782.248	0.0160967
782.326	0.0160960
782.405	0.0160780
782.483	0.0159957
782.561	0.0161976
782.639	0.0161082
782.717	0.0161794
782.795	0.0160574
782.873	0.0159623
782.951	0.0162185
783.030	0.0161549
783.108	0.0162440
783.186	0.0162206
783.264	0.0162330
783.342	0.0162278
783.420	0.0161253
783.498	0.0163065
783.576	0.0162433
783.655	0.0161448
783.733	0.0161792
783.811	0.0159458
783.889	0.0160314
783.967	0.0160336
784.045	0.0159411
784.123	0.0159300
784.201	0.0157889
784.280	0.0158567
784.358	0.0158379
784.436	0.0157348
784.514	0.0158344
784.592	0.0159184
784.670	0.0158804
784.748	0.0159091
784.826	0.0158463
784.905	0.0157656
784.983	0.0158092
785.061	0.0158829
785.139	0.0158901
785.217	0.0158928
785.295	0.0157676
785.373	0.0158942
785.451	0.0157422
785.530	0.0158955
785.608	0.0158586
785.686	0.0157698
785.764	0.0156380
785.842	0.0157707
785.920	0.0156545
785.998	0.0155471
786.076	0.0155429
786.155	0.0153769
786.233	0.0154324
786.311	0.0153780
786.389	0.0154697
786.467	0.0153789
786.545	0.0153856
786.623	0.0154501
786.701	0.0154700
786.780	0.0155811
786.858	0.0154227
786.936	0.0154972
787.014	0.0155109
787.092	0.0154981
787.170	0.0155631
787.248	0.0155052
787.326	0.0153897
787.405	0.0155011
787.483	0.0154458
787.561	0.0153619
787.639	0.0152943
787.717	0.0153802
787.795	0.0152501
787.873	0.0152479
787.951	0.0152335
788.030	0.0152478
788.108	0.0152591
788.186	0.0151646
788.264	0.0152020
788.342	0.0152311
788.420	0.0152391
788.498	0.0152386
788.576	0.0152579
788.655	0.0152433
788.733	0.0155208
788.811	0.0154701
788.889	0.0154881
788.967	0.0154836
789.045	0.0155487
789.123	0.0155708
789.201	0.0157440
789.280	0.0157864
789.358	0.0158142
789.436	0.0158804
789.514	0.0158541
789.592	0.0159685
789.670	0.0158948
789.748	0.0160155
789.826	0.0162106
789.905	0.0160960
789.983	0.0161779
790.061	0.0161784
790.139	0.0161920
790.217	0.0161591
790.295	0.0161380
790.373	0.0161037
790.451	0.0163023
790.530	0.0163097
790.608	0.0162614
790.686	0.0162695
790.764	0.0162872
790.842	0.0161850
790.920	0.0162764
790.998	0.0163290
791.076	0.0161338
791.155	0.0162122
791.233	0.0162355
791.311	0.0163676
791.389	0.0161858
791.467	0.0161588
791.545	0.0161493
791.623	0.0161198
791.701	0.0160829
791.780	0.0159384
791.858	0.0157603
791.936	0.0157155
792.014	0.0157078
792.092	0.0157033
792.170	0.0155781
792.248	0.0155136
792.326	0.0154546
792.405	0.0154897
792.483	0.0155740
792.561	0.0154681
792.639	0.0153954
792.717	0.0155222
792.795	0.0157571
792.873	0.0154507
792.951	0.0155963
793.030	0.0156187
793.108	0.0155067
793.186	0.0156415
793.264	0.0155360
793.342	0.0156801
793.420	0.0156130
793.498	0.0157905
793.576	0.0155643
793.655	0.0157624
793.733	0.0157623
793.811	0.0156055
793.889	0.0156092
793.967	0.0157266
794.045	0.0158186
794.123	0.0157261
794.201	0.0157935
794.280	0.0156477
794.358	0.0158086
794.436	0.0157555
794.514	0.0156745
794.592	0.0156172
794.670	0.0156335
794.748	0.0155140
794.826	0.0153308
794.905	0.0154908
794.983	0.0155042
795.061	0.0154386
795.139	0.0155302
795.217	0.0153345
795.295	0.0152761
795.373	0.0152803
795.451	0.0152515
795.530	0.0151616
795.608	0.0150562
795.686	0.0150117
795.764	0.0149830
795.842	0.0150313
795.920	0.0151593
795.998	0.0151618
796.076	0.0151098
796.155	0.0153729
796.233	0.0151566
796.311	0.0152954
796.389	0.0153807
796.467	0.0152371
796.545	0.0154741
796.623	0.0155171
796.701	0.0155477
796.780	0.0155003
796.858	0.0156042
796.936	0.0156326
797.014	0.0156871
797.092	0.0156673
797.170	0.0156052
797.248	0.0156763
797.326	0.0156454
797.405	0.0157092
797.483	0.0157357
797.561	0.0159925
797.639	0.0158974
797.717	0.0158942
797.795	0.0159344
797.873	0.0159937
797.951	0.0158562
798.030	0.0160045
798.108	0.0159184
798.186	0.0160386
798.264	0.0159781
798.342	0.0160960
798.420	0.0159937
798.498	0.0160235
798.576	0.0161819
798.655	0.0162560
798.733	0.0161266
798.811	0.0160445
798.889	0.0161707
798.967	0.0162754
799.045	0.0162595
799.123	0.0161921
799.201	0.0163382
799.280	0.0161638
799.358	0.0162960
799.436	0.0162797
799.514	0.0161794
799.592	0.0162312
799.670	0.0161562
799.748	0.0159904
799.826	0.0159379
799.905	0.0159866
799.983	0.0158527
800.061	0.0157403
800.139	0.0157172
800.217	0.0156625
800.295	0.0156947
800.373	0.0155067
800.451	0.0156181
800.530	0.0155306
800.608	0.0153954
800.686	0.0154749
800.764	0.0155175
800.842	0.0155694
800.920	0.0156218
800.998	0.0155692
801.076	0.0156286
801.155	0.0156148
801.233	0.0157777
801.311	0.0157829
801.389	0.0156817
801.467	0.0157537
801.545	0.0156293
801.623	0.0158411
801.701	0.0157343
801.780	0.0156188
801.858	0.0157319
801.936	0.0158376
802.014	0.0157134
802.092	0.0157619
802.170	0.0157905
802.248	0.0158381
802.326	0.0157956
802.405	0.0158314
802.483	0.0156459
802.561	0.0157217
802.639	0.0155511
802.717	0.0155275
802.795	0.0154118
802.873	0.0152096
802.951	0.0152182
803.030	0.0152629
803.108	0.0151121
803.186	0.0149529
803.264	0.0150285
803.342	0.0150738
803.420	0.0149612
803.498	0.0148029
803.576	0.0148194
803.655	0.0148820
803.733	0.0150155
803.811	0.0149477
803.889	0.0148228
803.967	0.0151000
804.045	0.0151371
804.123	0.0151117
804.201	0.0152140
804.280	0.0154033
804.358	0.0154396
804.436	0.0155936
804.514	0.0156258
804.592	0.0156384
804.670	0.0158872
804.748	0.0158163
804.826	0.0158836
804.905	0.0159677
804.983	0.0158427
805.061	0.0160417
805.139	0.0162131
805.217	0.0160240
805.295	0.0160125
805.373	0.0159723
805.451	0.0159044
805.530	0.0159637
805.608	0.0159680
805.686	0.0160454
805.764	0.0160058
805.842	0.0159758
805.920	0.0160680
805.998	0.0161480
806.076	0.0160616
806.155	0.0161170
806.233	0.0162022
806.311	0.0161023
806.389	0.0163323
806.467	0.0163329
806.545	0.0163350
806.623	0.0164133
806.701	0.0163735
806.780	0.0163935
806.858	0.0162930
806.936	0.0164326
807.014	0.0164629
807.092	0.0163519
807.170	0.0162457
807.248	0.0162473
807.326	0.0160841
807.405	0.0160265
807.483	0.0159682
807.561	0.0159696
807.639	0.0157475
807.717	0.0156184
807.795	0.0155880
807.873	0.0154546
807.951	0.0153234
808.030	0.0152682
808.108	0.0151488
808.186	0.0149794
808.264	0.0151189
808.342	0.0150620
808.420	0.0150912
808.498	0.0149349
808.576	0.0148899
808.655	0.0150173
808.733	0.0149927
808.811	0.0151392
808.889	0.0153072
808.967	0.0150821
809.045	0.0152913
809.123	0.0153616
809.201	0.0154575
809.280	0.0154288
809.358	0.0155607
809.436	0.0155863
809.514	0.0155815
809.592	0.0158628
809.670	0.0157874
809.748	0.0157668
809.826	0.0160791
809.905	0.0161368
809.983	0.0159882
810.061	0.0161128
810.139	0.0161638
810.217	0.0162862
810.295	0.0162435
810.373	0.0163406
810.451	0.0163694
810.530	0.0162872
810.608	0.0161887
810.686	0.0160520
810.764	0.0160501
810.842	0.0160250
810.920	0.0159457
810.998	0.0159219
811.076	0.0157588
811.155	0.0156213
811.233	0.0154699
811.311	0.0155328
811.389	0.0154471
811.467	0.0152741
811.545	0.0151919
811.623	0.0152143
811.701	0.0153029
811.780	0.0151116
811.858	0.0150581
811.936	0.0152655
812.014	0.0151028
812.092	0.0153124
812.170	0.0153627
812.248	0.0153082
812.326	0.0152829
812.405	0.0154773
812.483	0.0154412
812.561	0.0154649
812.639	0.0156101
812.717	0.0156216
812.795	0.0157887
812.873	0.0157972
812.951	0.0157790
813.030	0.0157534
813.108	0.0157246
813.186	0.0157590
813.264	0.0159226
813.342	0.0157859
813.420	0.0157900
813.498	0.0156795
813.576	0.0155640
813.655	0.0155159
813.733	0.0157667
813.811	0.0157237
813.889	0.0157935
813.967	0.0157750
814.045	0.0157198
814.123	0.0158985
814.201	0.0159239
814.280	0.0158923
814.358	0.0159895
814.436	0.0160016
814.514	0.0159863
814.592	0.0160152
814.670	0.0161172
814.748	0.0161918
814.826	0.0161563
814.905	0.0161364
814.983	0.0160076
815.061	0.0160334
815.139	0.0160701
815.217	0.0161378
815.295	0.0160523
815.373	0.0160422
815.451	0.0159410
815.530	0.0160507
815.608	0.0158422
815.686	0.0159606
815.764	0.0159505
815.842	0.0159383
815.920	0.0157944
815.998	0.0156753
816.076	0.0157936
816.155	0.0157121
816.233	0.0157063
816.311	0.0157384
816.389	0.0155775
816.467	0.0155775
816.545	0.0156743
816.623	0.0155608
816.701	0.0154762
816.780	0.0155564
816.858	0.0154472
816.936	0.0154142
817.014	0.0154446
817.092	0.0153413
817.170	0.0153534
817.248	0.0152888
817.326	0.0153258
817.405	0.0153942
817.483	0.0155101
817.561	0.0155221
817.639	0.0155611
817.717	0.0155661
817.795	0.0156595
817.873	0.0157652
817.951	0.0158398
818.030	0.0157680
818.108	0.0159394
818.186	0.0161621
818.264	0.0161835
818.342	0.0159821
818.420	0.0160225
818.498	0.0161571
818.576	0.0158920
818.655	0.0160242
818.733	0.0161189
818.811	0.0159274
818.889	0.0158015
818.967	0.0156076
819.045	0.0155038
819.123	0.0154411
819.201	0.0153549
819.280	0.0152264
819.358	0.0150458
819.436	0.0150005
819.514	0.0149377
819.592	0.0148163
819.670	0.0147938
819.748	0.0147707
819.826	0.0146686
819.905	0.0147195
819.983	0.0147666
820.061	0.0149574
820.139	0.0148979
820.217	0.0149162
820.295	0.0152514
820.373	0.0153643
820.451	0.0152348
820.530	0.0156632
820.608	0.0157468
820.686	0.0158434
820.764	0.0158309
820.842	0.0161256
820.920	0.0160313
820.998	0.0159427
821.076	0.0159936
821.155	0.0160973
821.233	0.0161957
821.311	0.0161485
821.389	0.0162186
821.467	0.0161289
821.545	0.0161439
821.623	0.0159095
821.701	0.0160678
821.780	0.0160598
821.858	0.0160582
821.936	0.0158744
822.014	0.0160270
822.092	0.0159805
822.170	0.0161033
822.248	0.0161505
822.326	0.0162032
822.405	0.0162276
822.483	0.0163291
822.561	0.0163232
822.639	0.0161731
822.717	0.0162231
822.795	0.0163670
822.873	0.0161645
822.951	0.0161472
823.030	0.0161574
823.108	0.0160743
823.186	0.0159779
823.264	0.0159052
823.342	0.0157487
823.420	0.0157451
823.498	0.0157391
823.576	0.0156693
823.655	0.0155742
823.733	0.0154671
823.811	0.0153113
823.889	0.0153063
823.967	0.0152605
824.045	0.0151627
824.123	0.0151505
824.201	0.0150828
824.280	0.0152682
824.358	0.0151263
824.436	0.0151579
824.514	0.0151570
824.592	0.0150230
824.670	0.0152791
824.748	0.0153860
824.826	0.0151897
824.905	0.0151422
824.983	0.0150439
825.061	0.0150826
825.139	0.0152518
825.217	0.0151988
825.295	0.0151845
825.373	0.0151395
825.451	0.0152375
825.530	0.0153124
825.608	0.0153550
825.686	0.0154636
825.764	0.0155780
825.842	0.0156251
825.920	0.0157520
825.998	0.0157156
826.076	0.0159958
826.155	0.0161279
826.233	0.0161102
826.311	0.0162270
826.389	0.0162164
826.467	0.0163523
826.545	0.0162669
826.623	0.0161750
826.701	0.0162473
826.780	0.0161826
826.858	0.0161710
826.936	0.0161681
827.014	0.0159747
827.092	0.0159409
827.170	0.0158224
827.248	0.0157372
827.326	0.0155083
827.405	0.0154019
827.483	0.0153595
827.561	0.0154390
827.639	0.0151659
827.717	0.0149973
827.795	0.0150695
827.873	0.0149673
827.951	0.0149686
828.030	0.0151062
828.108	0.0150451
828.186	0.0150665
828.264	0.0151402
828.342	0.0153349
828.420	0.0154473
828.498	0.0153407
828.576	0.0153693
828.655	0.0155320
828.733	0.0157332
828.811	0.0156436
828.889	0.0156746
828.967	0.0156931
829.045	0.0157993
829.123	0.0156490
829.201	0.0157834
829.280	0.0158778
829.358	0.0160418
829.436	0.0159868
829.514	0.0159555
829.592	0.0158755
829.670	0.0159653
829.748	0.0159702
829.826	0.0158302
829.905	0.0158916
829.983	0.0159129
830.061	0.0159387
830.139	0.0158880
830.217	0.0159520
830.295	0.0158839
830.373	0.0159274
830.451	0.0160041
830.530	0.0159642
830.608	0.0160812
830.686	0.0161226
830.764	0.0162068
830.842	0.0161803
830.920	0.0161417
830.998	0.0161642
831.076	0.0161577
831.155	0.0161398
831.233	0.0161660
831.311	0.0160976
831.389	0.0160911
831.467	0.0160487
831.545	0.0159101
831.623	0.0159211
831.701	0.0158936
831.780	0.0158683
831.858	0.0158244
831.936	0.0156487
832.014	0.0157007
832.092	0.0155690
832.170	0.0156864
832.248	0.0156609
832.326	0.0156015
832.405	0.0156296
832.483	0.0153360
832.561	0.0155318
832.639	0.0154769
832.717	0.0155951
832.795	0.0156567
832.873	0.0155930
832.951	0.0155309
833.030	0.0154056
833.108	0.0155869
833.186	0.0154494
833.264	0.0155072
833.342	0.0154887
833.420	0.0154060
833.498	0.0155876
833.576	0.0155831
833.655	0.0156088
833.733	0.0157172
833.811	0.0157079
833.889	0.0158005
833.967	0.0159378
834.045	0.0159364
834.123	0.0161830
834.201	0.0161921
834.280	0.0161737
834.358	0.0162418
834.436	0.0163265
834.514	0.0163089
834.592	0.0162917
834.670	0.0163366
834.748	0.0163359
834.826	0.0162721
834.905	0.0162489
834.983	0.0160973
835.061	0.0159631
835.139	0.0159074
835.217	0.0159018
835.295	0.0157038
835.373	0.0154704
835.451	0.0155012
835.530	0.0154332
835.608	0.0154123
835.686	0.0152842
835.764	0.0152299
835.842	0.0151028
835.920	0.0152326
835.998	0.0150394
836.076	0.0151195
836.155	0.0150665
836.233	0.0151514
836.311	0.0155074
836.389	0.0154974
836.467	0.0154468
836.545	0.0155597
836.623	0.0156176
836.701	0.0156159
836.780	0.0157456
836.858	0.0157847
836.936	0.0158203
837.014	0.0158595
837.092	0.0158569
837.170	0.0159486
837.248	0.0160705
837.326	0.0159840
837.405	0.0159677
837.483	0.0159217
837.561	0.0158710
837.639	0.0159629
837.717	0.0159026
837.795	0.0157918
837.873	0.0157902
837.951	0.0158287
838.030	0.0156557
838.108	0.0156952
838.186	0.0159038
838.264	0.0158718
838.342	0.0157986
838.420	0.0157235
838.498	0.0158991
838.576	0.0158384
838.655	0.0158911
838.733	0.0158257
838.811	0.0158691
838.889	0.0158956
838.967	0.0158710
839.045	0.0159277
839.123	0.0158911
839.201	0.0157626
839.280	0.0158269
839.358	0.0157536
839.436	0.0155761
839.514	0.0155874
839.592	0.0155156
839.670	0.0154690
839.748	0.0154250
839.826	0.0153855
839.905	0.0152795
839.983	0.0151789
840.061	0.0154043
840.139	0.0152859
840.217	0.0152844
840.295	0.0151125
840.373	0.0152319
840.451	0.0153906
840.530	0.0152798
840.608	0.0153797
840.686	0.0154379
840.764	0.0151682
840.842	0.0153767
840.920	0.0153860
840.998	0.0154267
841.076	0.0155402
841.155	0.0153954
841.233	0.0155297
841.311	0.0156805
841.389	0.0157207
841.467	0.0156494
841.545	0.0157640
841.623	0.0156435
841.701	0.0157697
841.780	0.0157671
841.858	0.0157690
841.936	0.0158842
842.014	0.0159239
842.092	0.0159885
842.170	0.0159620
842.248	0.0159031
842.326	0.0162025
842.405	0.0160824
842.483	0.0161200
842.561	0.0161047
842.639	0.0161401
842.717	0.0159984
842.795	0.0160602
842.873	0.0160631
842.951	0.0159696
843.030	0.0158823
843.108	0.0158979
843.186	0.0158863
843.264	0.0157107
843.342	0.0156712
843.420	0.0154858
843.498	0.0155111
843.576	0.0153444
843.655	0.0153026
843.733	0.0152990
843.811	0.0151998
843.889	0.0152074
843.967	0.0152095
844.045	0.0152686
844.123	0.0151015
844.201	0.0150134
844.280	0.0151141
844.358	0.0151688
844.436	0.0152238
844.514	0.0152324
844.592	0.0152954
844.670	0.0154340
844.748	0.0155879
844.826	0.0154198
844.905	0.0154810
844.983	0.0155114
845.061	0.0156330
845.139	0.0155951
845.217	0.0156495
845.295	0.0157012
845.373	0.0156787
845.451	0.0157526
845.530	0.0157142
845.608	0.0156845
845.686	0.0159040
845.764	0.0158024
845.842	0.0158279
845.920	0.0159521
845.998	0.0159766
846.076	0.0158998
846.155	0.0160373
846.233	0.0159273
846.311	0.0160052
846.389	0.0161643
846.467	0.0160837
846.545	0.0160633
846.623	0.0159666
846.701	0.0160065
846.780	0.0159692
846.858	0.0160042
846.936	0.0160329
847.014	0.0157957
847.092	0.0160224
847.170	0.0161132
847.248	0.0157779
847.326	0.0158156
847.405	0.0159087
847.483	0.0156473
847.561	0.0156252
847.639	0.0156818
847.717	0.0156023
847.795	0.0155210
847.873	0.0154061
847.951	0.0154164
848.030	0.0154863
848.108	0.0154907
848.186	0.0153903
848.264	0.0154197
848.342	0.0154929
848.420	0.0155798
848.498	0.0156030
848.576	0.0154893
848.655	0.0154761
848.733	0.0154990
848.811	0.0155339
848.889	0.0156741
848.967	0.0155980
849.045	0.0154075
849.123	0.0155070
849.201	0.0157048
849.280	0.0155142
849.358	0.0156429
849.436	0.0155341
849.514	0.0155428
849.592	0.0157386
849.670	0.0158405
849.748	0.0156075
849.826	0.0157587
849.905	0.0156796
849.983	0.0155904
850.061	0.0156843
850.139	0.0159006
850.217	0.0157822
850.295	0.0156664
850.373	0.0159752
850.451	0.0157834
850.530	0.0159659
850.608	0.0158355
850.686	0.0159711
850.764	0.0158428
850.842	0.0158713
850.920	0.0159103
850.998	0.0159527
851.076	0.0158415
851.155	0.0159995
851.233	0.0158591
851.311	0.0157958
851.389	0.0157729
851.467	0.0157366
851.545	0.0157411
851.623	0.0155330
851.701	0.0154922
851.780	0.0153896
851.858	0.0155078
851.936	0.0154518
852.014	0.0155629
852.092	0.0153799
852.170	0.0154712
852.248	0.0154575
852.326	0.0154581
852.405	0.0155830
852.483	0.0154225
852.561	0.0154734
852.639	0.0157035
852.717	0.0158193
852.795	0.0157587
852.873	0.0156971
852.951	0.0156799
853.030	0.0157278
853.108	0.0158428
853.186	0.0158798
853.264	0.0158469
853.342	0.0158630
853.420	0.0158830
853.498	0.0158628
853.576	0.0160067
853.655	0.0158603
853.733	0.0158844
853.811	0.0157494
853.889	0.0158662
853.967	0.0159328
854.045	0.0158875
854.123	0.0158070
854.201	0.0158526
854.280	0.0159587
854.358	0.0159728
854.436	0.0158759
854.514	0.0158892
854.592	0.0156964
854.670	0.0158559
854.748	0.0158688
854.826	0.0158736
854.905	0.0158215
854.983	0.0158226
855.061	0.0158103
855.139	0.0156119
855.217	0.0157272
855.295	0.0158193
855.373	0.0156697
855.451	0.0156316
855.530	0.0155909
855.608	0.0155997
855.686	0.0156467
855.764	0.0155757
855.842	0.0155955
855.920	0.0155114
855.998	0.0154735
856.076	0.0154598
856.155	0.0156818
856.233	0.0156152
856.311	0.0155397
856.389	0.0155633
856.467	0.0155363
856.545	0.0155295
856.623	0.0156116
856.701	0.0158498
856.780	0.0157886
856.858	0.0157360
856.936	0.0156709
857.014	0.0159318
857.092	0.0158437
857.170	0.0158700
857.248	0.0157941
857.326	0.0159025
857.405	0.0159270
857.483	0.0159379
857.561	0.0160634
857.639	0.0159090
857.717	0.0161623
857.795	0.0160891
857.873	0.0160052
857.951	0.0159277
858.030	0.0160847
858.108	0.0160088
858.186	0.0159531
858.264	0.0159856
858.342	0.0159617
858.420	0.0158530
858.498	0.0158532
858.576	0.0158298
858.655	0.0158681
858.733	0.0158825
858.811	0.0159350
858.889	0.0158952
858.967	0.0157549
859.045	0.0157157
859.123	0.0157921
859.201	0.0158490
859.280	0.0157034
859.358	0.0157278
859.436	0.0154314
859.514	0.0156985
859.592	0.0155231
859.670	0.0154393
859.748	0.0154338
859.826	0.0153754
859.905	0.0155904
859.983	0.0153053
860.061	0.0154120
860.139	0.0154062
860.217	0.0155081
860.295	0.0154269
860.373	0.0154594
860.451	0.0153947
860.530	0.0155584
860.608	0.0153250
860.686	0.0155648
860.764	0.0155479
860.842	0.0155256
860.920	0.0156025
860.998	0.0155690
861.076	0.0154874
861.155	0.0156504
861.233	0.0156525
861.311	0.0155900
861.389	0.0156759
861.467	0.0156612
861.545	0.0155658
861.623	0.0155882
861.701	0.0156316
861.780	0.0155554
861.858	0.0156258
861.936	0.0157526
862.014	0.0156434
862.092	0.0156158
862.170	0.0157726
862.248	0.0157388
862.326	0.0158268
862.405	0.0157643
862.483	0.0157307
862.561	0.0158595
862.639	0.0159693
862.717	0.0159309
862.795	0.0159050
862.873	0.0160334
862.951	0.0159957
863.030	0.0159753
863.108	0.0159766
863.186	0.0160669
863.264	0.0159929
863.342	0.0159074
863.420	0.0158329
863.498	0.0158096
863.576	0.0158247
863.655	0.0158101
863.733	0.0155565
863.811	0.0157556
863.889	0.0156336
863.967	0.0156551
864.045	0.0156502
864.123	0.0156061
864.201	0.0156627
864.280	0.0157050
864.358	0.0156902
864.436	0.0156289
864.514	0.0156380
864.592	0.0156426
864.670	0.0156964
864.748	0.0156316
864.826	0.0155756
864.905	0.0156618
864.983	0.0155962
865.061	0.0157718
865.139	0.0157337
865.217	0.0156089
865.295	0.0157345
865.373	0.0157435
865.451	0.0158009
865.530	0.0158379
865.608	0.0158289
865.686	0.0159709
865.764	0.0158025
865.842	0.0159299
865.920	0.0158249
865.998	0.0157780
866.076	0.0159095
866.155	0.0158373
866.233	0.0158240
866.311	0.0159272
866.389	0.0159023
866.467	0.0157928
866.545	0.0157024
866.623	0.0156834
866.701	0.0157655
866.780	0.0157461
866.858	0.0158129
866.936	0.0156403
867.014	0.0156485
867.092	0.0156411
867.170	0.0156264
867.248	0.0155067
867.326	0.0155212
867.405	0.0155159
867.483	0.0156876
867.561	0.0154647
867.639	0.0155341
867.717	0.0155631
867.795	0.0154239
867.873	0.0156073
867.951	0.0155842
868.030	0.0156425
868.108	0.0155374
868.186	0.0156557
868.264	0.0155455
868.342	0.0154823
868.420	0.0155978
868.498	0.0154965
868.576	0.0154806
868.655	0.0156321
868.733	0.0154854
868.811	0.0155251
868.889	0.0156203
868.967	0.0155955
869.045	0.0156643
869.123	0.0156258
869.201	0.0155297
869.280	0.0155549
869.358	0.0156345
869.436	0.0156660
869.514	0.0157368
869.592	0.0156981
869.670	0.0157244
869.748	0.0156602
869.826	0.0157297
869.905	0.0156541
869.983	0.0158450
870.061	0.0156635
870.139	0.0157288
870.217	0.0158662
870.295	0.0157983
870.373	0.0158550
870.451	0.0159009
870.530	0.0158828
870.608	0.0158674
870.686	0.0159978
870.764	0.0158308
870.842	0.0158108
870.920	0.0159076
870.998	0.0157686
871.076	0.0158378
871.155	0.0157466
871.233	0.0158123
871.311	0.0157006
871.389	0.0157525
871.467	0.0156893
871.545	0.0157941
871.623	0.0156720
871.701	0.0156773
871.780	0.0155457
871.858	0.0155318
871.936	0.0156226
872.014	0.0156195
872.092	0.0155186
872.170	0.0156090
872.248	0.0155495
872.326	0.0155429
872.405	0.0155525
872.483	0.0157144
872.561	0.0153988
872.639	0.0153427
872.717	0.0154513
872.795	0.0156061
872.873	0.0156650
872.951	0.0155469
873.030	0.0156016
873.108	0.0155621
873.186	0.0155988
873.264	0.0156602
873.342	0.0157047
873.420	0.0157562
873.498	0.0158270
873.576	0.0157795
873.655	0.0156651
873.733	0.0157279
873.811	0.0159748
873.889	0.0157581
873.967	0.0159457
874.045	0.0158320
874.123	0.0159099
874.201	0.0158718
874.280	0.0158328
874.358	0.0160860
874.436	0.0160554
874.514	0.0156944
874.592	0.0158453
874.670	0.0159534
874.748	0.0159924
874.826	0.0158743
874.905	0.0158336
874.983	0.0157419
875.061	0.0156347
875.139	0.0156902
875.217	0.0156381
875.295	0.0154826
875.373	0.0155782
875.451	0.0155859
875.530	0.0155564
875.608	0.0155173
875.686	0.0154559
875.764	0.0156363
875.842	0.0155981
875.920	0.0155976
875.998	0.0156734
876.076	0.0155473
876.155	0.0156767
876.233	0.0158351
876.311	0.0156273
876.389	0.0157976
876.467	0.0157384
876.545	0.0157613
876.623	0.0157440
876.701	0.0157029
876.780	0.0158462
876.858	0.0156432
876.936	0.0157819
877.014	0.0157656
877.092	0.0157988
877.170	0.0158385
877.248	0.0157870
877.326	0.0157794
877.405	0.0156812
877.483	0.0157483
877.561	0.0158301
877.639	0.0157965
877.717	0.0157969
877.795	0.0157003
877.873	0.0158424
877.951	0.0159233
878.030	0.0159757
878.108	0.0157756
878.186	0.0158836
878.264	0.0159901
878.342	0.0159525
878.420	0.0158011
878.498	0.0159441
878.576	0.0159555
878.655	0.0160436
878.733	0.0159320
878.811	0.0158847
878.889	0.0158298
878.967	0.0158249
879.045	0.0158952
879.123	0.0158385
879.201	0.0158124
879.280	0.0156906
879.358	0.0159053
879.436	0.0158195
879.514	0.0157053
879.592	0.0159875
879.670	0.0158432
879.748	0.0159138
879.826	0.0159774
879.905	0.0158204
879.983	0.0159904
880.061	0.0159412
880.139	0.0159396
880.217	0.0159789
880.295	0.0158788
880.373	0.0158689
880.451	0.0159459
880.530	0.0159925
880.608	0.0158105
880.686	0.0157799
880.764	0.0159413
880.842	0.0158148
880.920	0.0157884
880.998	0.0159968
881.076	0.0157314
881.155	0.0157819
881.233	0.0159401
881.311	0.0158850
881.389	0.0156594
881.467	0.0157365
881.545	0.0158060
881.623	0.0157513
881.701	0.0157945
881.780	0.0158307
881.858	0.0157178
881.936	0.0157214
882.014	0.0158342
882.092	0.0157057
882.170	0.0156929
882.248	0.0158445
882.326	0.0158939
882.405	0.0158692
882.483	0.0157811
882.561	0.0158331
882.639	0.0156781
882.717	0.0155682
882.795	0.0157256
882.873	0.0157732
882.951	0.0156483
883.030	0.0155945
883.108	0.0156178
883.186	0.0155577
883.264	0.0155984
883.342	0.0155195
883.420	0.0155026
883.498	0.0155740
883.576	0.0155098
883.655	0.0154739
883.733	0.0155199
883.811	0.0154941
883.889	0.0154523
883.967	0.0155053
884.045	0.0156476
884.123	0.0156696
884.201	0.0154458
884.280	0.0155279
884.358	0.0156942
884.436	0.0156072
884.514	0.0154485
884.592	0.0154937
884.670	0.0154626
884.748	0.0156817
884.826	0.0155400
884.905	0.0156343
884.983	0.0154745
885.061	0.0156062
885.139	0.0156055
885.217	0.0154767
885.295	0.0155463
885.373	0.0157282
885.451	0.0156783
885.530	0.0156594
885.608	0.0156228
885.686	0.0156528
885.764	0.0157196
885.842	0.0156942
885.920	0.0156881
885.998	0.0157104
886.076	0.0155976
886.155	0.0157321
886.233	0.0156607
886.311	0.0157183
886.389	0.0158035
886.467	0.0156491
886.545	0.0157029
886.623	0.0157587
886.701	0.0158396
886.780	0.0159109
886.858	0.0158219
886.936	0.0159399
887.014	0.0158851
887.092	0.0158492
887.170	0.0158691
887.248	0.0158395
887.326	0.0158335
887.405	0.0159360
887.483	0.0159260
887.561	0.0159971
887.639	0.0158706
887.717	0.0158940
887.795	0.0159164
887.873	0.0158369
887.951	0.0157903
888.030	0.0157940
888.108	0.0158328
888.186	0.0158136
888.264	0.0157750
888.342	0.0157919
888.420	0.0156874
888.498	0.0155986
888.576	0.0156046
888.655	0.0155991
888.733	0.0156285
888.811	0.0155751
888.889	0.0154797
888.967	0.0155930
889.045	0.0156378
889.123	0.0156128
889.201	0.0156003
889.280	0.0155688
889.358	0.0155874
889.436	0.0157244
889.514	0.0157174
889.592	0.0157607
889.670	0.0158250
889.748	0.0158099
889.826	0.0158442
889.905	0.0158254
889.983	0.0159089
890.061	0.0158184
890.139	0.0158269
890.217	0.0159296
890.295	0.0158746
890.373	0.0159335
890.451	0.0158461
890.530	0.0157267
890.608	0.0158530
890.686	0.0156689
890.764	0.0154892
890.842	0.0157320
890.920	0.0156303
890.998	0.0156969
891.076	0.0154887
891.155	0.0156076
891.233	0.0154668
891.311	0.0156325
891.389	0.0155107
891.467	0.0155386
891.545	0.0155583
891.623	0.0154978
891.701	0.0154568
891.780	0.0154156
891.858	0.0153791
891.936	0.0155585
892.014	0.0155234
892.092	0.0155123
892.170	0.0154498
892.248	0.0155596
892.326	0.0155196
892.405	0.0155589
892.483	0.0154603
892.561	0.0155711
892.639	0.0156960
892.717	0.0156200
892.795	0.0155973
892.873	0.0157346
892.951	0.0155875
893.030	0.0156583
893.108	0.0156317
893.186	0.0156540
893.264	0.0157256
893.342	0.0158535
893.420	0.0156595
893.498	0.0156686
893.576	0.0157301
893.655	0.0157598
893.733	0.0157328
893.811	0.0156843
893.889	0.0156790
893.967	0.0158414
894.045	0.0157442
894.123	0.0157912
894.201	0.0158183
894.280	0.0158190
894.358	0.0159209
894.436	0.0156679
894.514	0.0156911
894.592	0.0158518
894.670	0.0157555
894.748	0.0157968
894.826	0.0158431
894.905	0.0157772
894.983	0.0157446
895.061	0.0158733
895.139	0.0156498
895.217	0.0157121
895.295	0.0156699
895.373	0.0157724
895.451	0.0156665
895.530	0.0156852
895.608	0.0157770
895.686	0.0156728
895.764	0.0155864
895.842	0.0157054
895.920	0.0155892
895.998	0.0155802
896.076	0.0157761
896.155	0.0156784
896.233	0.0155840
896.311	0.0155136
896.389	0.0155776
896.467	0.0155173
896.545	0.0156374
896.623	0.0157027
896.701	0.0156645
896.780	0.0155177
896.858	0.0155666
896.936	0.0155509
897.014	0.0155903
897.092	0.0156193
897.170	0.0156725
897.248	0.0157718
897.326	0.0155711
897.405	0.0155079
897.483	0.0155757
897.561	0.0155733
897.639	0.0158110
897.717	0.0156556
897.795	0.0155777
897.873	0.0156749
897.951	0.0156492
898.030	0.0157103
898.108	0.0157127
898.186	0.0156477
898.264	0.0156538
898.342	0.0159280
898.420	0.0157366
898.498	0.0158815
898.576	0.0159025
898.655	0.0159170
898.733	0.0158880
898.811	0.0157034
898.889	0.0159454
898.967	0.0160292
899.045	0.0159564
899.123	0.0158109
899.201	0.0158524
899.280	0.0161229
899.358	0.0159204
899.436	0.0158867
899.514	0.0157541
899.592	0.0157509
899.670	0.0157880
899.748	0.0157725
899.826	0.0155784
899.905	0.0156372
899.983	0.0156528
900.061	0.0155803
900.139	0.0155533
900.217	0.0155346
900.295	0.0154799
900.373	0.0155498
900.451	0.0155972
900.530	0.0154909
900.608	0.0156467
900.686	0.0156723
900.764	0.0156418
900.842	0.0156116
900.920	0.0156597
900.998	0.0156453
901.076	0.0157186
901.155	0.0157026
901.233	0.0156508
901.311	0.0157245
901.389	0.0156493
901.467	0.0156702
901.545	0.0157243
901.623	0.0157969
901.701	0.0157148
901.780	0.0157321
901.858	0.0158116
901.936	0.0156576
902.014	0.0155737
902.092	0.0157170
902.170	0.0156228
902.248	0.0156589
902.326	0.0157238
902.405	0.0156184
902.483	0.0157570
902.561	0.0156329
902.639	0.0157383
902.717	0.0156350
902.795	0.0158755
902.873	0.0157928
902.951	0.0157126
903.030	0.0156739
903.108	0.0157198
903.186	0.0156915
903.264	0.0157846
903.342	0.0157523
903.420	0.0155248
903.498	0.0156139
903.576	0.0159114
903.655	0.0157674
903.733	0.0156734
903.811	0.0157019
903.889	0.0156697
903.967	0.0156791
904.045	0.0157352
904.123	0.0157467
904.201	0.0155113
904.280	0.0157044
904.358	0.0156847
904.436	0.0157281
904.514	0.0155972
904.592	0.0157077
904.670	0.0157623
904.748	0.0157194
904.826	0.0157364
904.905	0.0156068
904.983	0.0158253
905.061	0.0156948
905.139	0.0157491
905.217	0.0157856
905.295	0.0157399
905.373	0.0156868
905.451	0.0157636
905.530	0.0158517
905.608	0.0157263
905.686	0.0157384
905.764	0.0157780
905.842	0.0158266
905.920	0.0158360
905.998	0.0156947
906.076	0.0157038
906.155	0.0158736
906.233	0.0157880
906.311	0.0158186
906.389	0.0158629
906.467	0.0158398
906.545	0.0157335
906.623	0.0157738
906.701	0.0159478
906.780	0.0158178
906.858	0.0158141
906.936	0.0158552
907.014	0.0156962
907.092	0.0157504
907.170	0.0158421
907.248	0.0156904
907.326	0.0157238
907.405	0.0155946
907.483	0.0156818
907.561	0.0156376
907.639	0.0154880
907.717	0.0157254
907.795	0.0156064
907.873	0.0155720
907.951	0.0155318
908.030	0.0155612
908.108	0.0154882
908.186	0.0155141
908.264	0.0155904
908.342	0.0155439
908.420	0.0154723
908.498	0.0156686
908.576	0.0155994
908.655	0.0156149
908.733	0.0157041
908.811	0.0157581
908.889	0.0157150
908.967	0.0156396
909.045	0.0157676
909.123	0.0157275
909.201	0.0157243
909.280	0.0158681
909.358	0.0158621
909.436	0.0158595
909.514	0.0158855
909.592	0.0158933
909.670	0.0157896
909.748	0.0158389
909.826	0.0158285
909.905	0.0157757
909.983	0.0157874
910.061	0.0158286
910.139	0.0157722
910.217	0.0158073
910.295	0.0158104
910.373	0.0158147
910.451	0.0157681
910.530	0.0157127
910.608	0.0157536
910.686	0.0158403
910.764	0.0157304
910.842	0.0155969
910.920	0.0158399
910.998	0.0159158
911.076	0.0158385
911.155	0.0159180
911.233	0.0158492
911.311	0.0159202
911.389	0.0160382
911.467	0.0158192
911.545	0.0159924
911.623	0.0160125
911.701	0.0157964
911.780	0.0157394
911.858	0.0159593
911.936	0.0158903
912.014	0.0158633
912.092	0.0156162
912.170	0.0157311
912.248	0.0156961
912.326	0.0156911
912.405	0.0157048
912.483	0.0155792
912.561	0.0156462
912.639	0.0155885
912.717	0.0156264
912.795	0.0155664
912.873	0.0155757
912.951	0.0155592
913.030	0.0156670
913.108	0.0157386
913.186	0.0156705
913.264	0.0157188
913.342	0.0157199
913.420	0.0156472
913.498	0.0156342
913.576	0.0156015
913.655	0.0157251
913.733	0.0157290
913.811	0.0157475
913.889	0.0158174
913.967	0.0157105
914.045	0.0156567
914.123	0.0157793
914.201	0.0156777
914.280	0.0156760
914.358	0.0156989
914.436	0.0158530
914.514	0.0156823
914.592	0.0157533
914.670	0.0156168
914.748	0.0155847
914.826	0.0158377
914.905	0.0157548
914.983	0.0157154
915.061	0.0156838
915.139	0.0158190
915.217	0.0157675
915.295	0.0157184
915.373	0.0156285
915.451	0.0155759
915.530	0.0157063
915.608	0.0157922
915.686	0.0157404
915.764	0.0156011
915.842	0.0158679
915.920	0.0157462
915.998	0.0157619
916.076	0.0158118
916.155	0.0156796
916.233	0.0157336
916.311	0.0156939
916.389	0.0157528
916.467	0.0157107
916.545	0.0156659
916.623	0.0158558
916.701	0.0157126
916.780	0.0156598
916.858	0.0156149
916.936	0.0157063
917.014	0.0157011
917.092	0.0156564
917.170	0.0157079
917.248	0.0157095
917.326	0.0155995
917.405	0.0155211
917.483	0.0155932
917.561	0.0156410
917.639	0.0155241
917.717	0.0156715
917.795	0.0156102
917.873	0.0156648
917.951	0.0156950
918.030	0.0156432
918.108	0.0155747
918.186	0.0156011
918.264	0.0154589
918.342	0.0156898
918.420	0.0156052
918.498	0.0156511
918.576	0.0156593
918.655	0.0157339
918.733	0.0156702
918.811	0.0158163
918.889	0.0156794
918.967	0.0158302
919.045	0.0157727
919.123	0.0157042
919.201	0.0157463
919.280	0.0156522
919.358	0.0156891
919.436	0.0157214
919.514	0.0158036
919.592	0.0157568
919.670	0.0157323
919.748	0.0157798
919.826	0.0157594
919.905	0.0156575
919.983	0.0158396
920.061	0.0156709
920.139	0.0156764
920.217	0.0157182
920.295	0.0155181
920.373	0.0155614
920.451	0.0155465
920.530	0.0154657
920.608	0.0154981
920.686	0.0156138
920.764	0.0154562
920.842	0.0155057
920.920	0.0155000
920.998	0.0155604
921.076	0.0155604
921.155	0.0155039
921.233	0.0155525
921.311	0.0156421
921.389	0.0156013
921.467	0.0155473
921.545	0.0156123
921.623	0.0155791
921.701	0.0155265
921.780	0.0154688
921.858	0.0154465
921.936	0.0156799
922.014	0.0155971
922.092	0.0155234
922.170	0.0155438
922.248	0.0155384
922.326	0.0156795
922.405	0.0157377
922.483	0.0158532
922.561	0.0158101
922.639	0.0157105
922.717	0.0157764
922.795	0.0157333
922.873	0.0157855
922.951	0.0159062
923.030	0.0158769
923.108	0.0157744
923.186	0.0158701
923.264	0.0158138
923.342	0.0157748
923.420	0.0157816
923.498	0.0158450
923.576	0.0157983
923.655	0.0157957
923.733	0.0157115
923.811	0.0156901
923.889	0.0156449
923.967	0.0157451
924.045	0.0157148
924.123	0.0157224
924.201	0.0158263
924.280	0.0157006
924.358	0.0157272
924.436	0.0156904
924.514	0.0157493
924.592	0.0156953
924.670	0.0156617
924.748	0.0158766
924.826	0.0157896
924.905	0.0155931
924.983	0.0156329
925.061	0.0157133
925.139	0.0157722
925.217	0.0157465
925.295	0.0156225
925.373	0.0155501
925.451	0.0154565
925.530	0.0154672
925.608	0.0154000
925.686	0.0154636
925.764	0.0155849
925.842	0.0155167
925.920	0.0155547
925.998	0.0155874
926.076	0.0155830
926.155	0.0155248
926.233	0.0155773
926.311	0.0157325
926.389	0.0156045
926.467	0.0156485
926.545	0.0157562
926.623	0.0157549
926.701	0.0156579
926.780	0.0156698
926.858	0.0156863
926.936	0.0157604
927.014	0.0158655
927.092	0.0157702
927.170	0.0159115
927.248	0.0158813
927.326	0.0157993
927.405	0.0158228
927.483	0.0156947
927.561	0.0157536
927.639	0.0157970
927.717	0.0157909
927.795	0.0156625
927.873	0.0157198
927.951	0.0157275
928.030	0.0157480
928.108	0.0157124
928.186	0.0157381
928.264	0.0156538
928.342	0.0156334
928.420	0.0157238
928.498	0.0156514
928.576	0.0156353
928.655	0.0156626
928.733	0.0156809
928.811	0.0156403
928.889	0.0155634
928.967	0.0156710
929.045	0.0157300
929.123	0.0157629
929.201	0.0156541
929.280	0.0156618
929.358	0.0157338
929.436	0.0158437
929.514	0.0157430
929.592	0.0158668
929.670	0.0157148
929.748	0.0157635
929.826	0.0158332
929.905	0.0158201
929.983	0.0158525
930.061	0.0157616
930.139	0.0158839
930.217	0.0159613
930.295	0.0158391
930.373	0.0158038
930.451	0.0160770
930.530	0.0159826
930.608	0.0158118
930.686	0.0159182
930.764	0.0160027
930.842	0.0158650
930.920	0.0158714
930.998	0.0159147
931.076	0.0159179
931.155	0.0157476
931.233	0.0157133
931.311	0.0157510
931.389	0.0157983
931.467	0.0158432
931.545	0.0158089
931.623	0.0158093
931.701	0.0157677
931.780	0.0157332
931.858	0.0157233
931.936	0.0158740
932.014	0.0158333
932.092	0.0156115
932.170	0.0156499
932.248	0.0158041
932.326	0.0156921
932.405	0.0156911
932.483	0.0157673
932.561	0.0158137
932.639	0.0158688
932.717	0.0156720
932.795	0.0157144
932.873	0.0157693
932.951	0.0158154
933.030	0.0157972
933.108	0.0157220
933.186	0.0156219
933.264	0.0157381
933.342	0.0157336
933.420	0.0156916
933.498	0.0157466
933.576	0.0155563
933.655	0.0156094
933.733	0.0157107
933.811	0.0156197
933.889	0.0156796
933.967	0.0157890
934.045	0.0157594
934.123	0.0156689
934.201	0.0156699
934.280	0.0157090
934.358	0.0155286
934.436	0.0157076
934.514	0.0157851
934.592	0.0157823
934.670	0.0157142
934.748	0.0157639
934.826	0.0157903
934.905	0.0158143
934.983	0.0156625
935.061	0.0157137
935.139	0.0157778
935.217	0.0158327
935.295	0.0158118
935.373	0.0157088
935.451	0.0156675
935.530	0.0157017
935.608	0.0156624
935.686	0.0156878
935.764	0.0157447
935.842	0.0156261
935.920	0.0154487
935.998	0.0158218
936.076	0.0157682
936.155	0.0157718
936.233	0.0157497
936.311	0.0158236
936.389	0.0156796
936.467	0.0156541
936.545	0.0157833
936.623	0.0158396
936.701	0.0158458
936.780	0.0158046
936.858	0.0159161
936.936	0.0158443
937.014	0.0158140
937.092	0.0159084
937.170	0.0158313
937.248	0.0158652
937.326	0.0157339
937.405	0.0155817
937.483	0.0155143
937.561	0.0158173
937.639	0.0156355
937.717	0.0156539
937.795	0.0156409
937.873	0.0155559
937.951	0.0154945
938.030	0.0157355
938.108	0.0156783
938.186	0.0155669
938.264	0.0155711
938.342	0.0156761
938.420	0.0157491
938.498	0.0156966
938.576	0.0157429
938.655	0.0158940
938.733	0.0158281
938.811	0.0158031
938.889	0.0158954
938.967	0.0157944
939.045	0.0158198
939.123	0.0158690
939.201	0.0159158
939.280	0.0158411
939.358	0.0159182
939.436	0.0158124
939.514	0.0158635
939.592	0.0158086
939.670	0.0157596
939.748	0.0158617
939.826	0.0157526
939.905	0.0157552
939.983	0.0157333
940.061	0.0157243
940.139	0.0158638
940.217	0.0156326
940.295	0.0158572
940.373	0.0157468
940.451	0.0157540
940.530	0.0158183
940.608	0.0156923
940.686	0.0156769
940.764	0.0157065
940.842	0.0156617
940.920	0.0155550
940.998	0.0154973
941.076	0.0154869
941.155	0.0157316
941.233	0.0156301
941.311	0.0155900
941.389	0.0156062
941.467	0.0156824
941.545	0.0154847
941.623	0.0155230
941.701	0.0155363
941.780	0.0156591
941.858	0.0156316
941.936	0.0156472
942.014	0.0156837
942.092	0.0155946
942.170	0.0155640
942.248	0.0155006
942.326	0.0157365
942.405	0.0156751
942.483	0.0156042
942.561	0.0157418
942.639	0.0157987
942.717	0.0156081
942.795	0.0157532
942.873	0.0157626
942.951	0.0157338
943.030	0.0158350
943.108	0.0157870
943.186	0.0158935
943.264	0.0156357
943.342	0.0155930
943.420	0.0157594
943.498	0.0157756
943.576	0.0158698
943.655	0.0157912
943.733	0.0157496
943.811	0.0158441
943.889	0.0158399
943.967	0.0157215
944.045	0.0157321
944.123	0.0157812
944.201	0.0157593
944.280	0.0157834
944.358	0.0157133
944.436	0.0157497
944.514	0.0158828
944.592	0.0157437
944.670	0.0157992
944.748	0.0156852
944.826	0.0157564
944.905	0.0157480
944.983	0.0155971
945.061	0.0157421
945.139	0.0157717
945.217	0.0155964
945.295	0.0157235
945.373	0.0155899
945.451	0.0156598
945.530	0.0156243
945.608	0.0155726
945.686	0.0155209
945.764	0.0155257
945.842	0.0155329
945.920	0.0156331
945.998	0.0155553
946.076	0.0155569
946.155	0.0155888
946.233	0.0155276
946.311	0.0156084
946.389	0.0154723
946.467	0.0155363
946.545	0.0155759
946.623	0.0155093
946.701	0.0158173
946.780	0.0157398
946.858	0.0156760
946.936	0.0157619
947.014	0.0157751
947.092	0.0158747
947.170	0.0155035
947.248	0.0157211
947.326	0.0157594
947.405	0.0156636
947.483	0.0157433
947.561	0.0157669
947.639	0.0158286
947.717	0.0157601
947.795	0.0156671
947.873	0.0157617
947.951	0.0158159
948.030	0.0155830
948.108	0.0156660
948.186	0.0155993
948.264	0.0156566
948.342	0.0156509
948.420	0.0154215
948.498	0.0156296
948.576	0.0155947
948.655	0.0155089
948.733	0.0155678
948.811	0.0155835
948.889	0.0154972
948.967	0.0155920
949.045	0.0154330
949.123	0.0153961
949.201	0.0156555
949.280	0.0155257
949.358	0.0156675
949.436	0.0155999
949.514	0.0156895
949.592	0.0154182
949.670	0.0154498
949.748	0.0154890
949.826	0.0153610
949.905	0.0154991
949.983	0.0153702
950.061	0.0154630
950.139	0.0154515
950.217	0.0154666
950.295	0.0155670
950.373	0.0156077
950.451	0.0155812
950.530	0.0155113
950.608	0.0155316
950.686	0.0155669
950.764	0.0156467
950.842	0.0157437
950.920	0.0156559
950.998	0.0157665
951.076	0.0157941
951.155	0.0158188
951.233	0.0156965
951.311	0.0157951
951.389	0.0156716
951.467	0.0157182
951.545	0.0156572
951.623	0.0157075
951.701	0.0157954
951.780	0.0156850
951.858	0.0157761
951.936	0.0158197
952.014	0.0158092
952.092	0.0157052
952.170	0.0157241
952.248	0.0157597
952.326	0.0158784
952.405	0.0156365
952.483	0.0157490
952.561	0.0158097
952.639	0.0156721
952.717	0.0157841
952.795	0.0156042
952.873	0.0158221
952.951	0.0155692
953.030	0.0156817
953.108	0.0155621
953.186	0.0155153
953.264	0.0155734
953.342	0.0155546
953.420	0.0156648
953.498	0.0156854
953.576	0.0156308
953.655	0.0157155
953.733	0.0157514
953.811	0.0156035
953.889	0.0155475
953.967	0.0156461
954.045	0.0157644
954.123	0.0157139
954.201	0.0156583
954.280	0.0155973
954.358	0.0156517
954.436	0.0156608
954.514	0.0157697
954.592	0.0158083
954.670	0.0157696
954.748	0.0157675
954.826	0.0156833
954.905	0.0157124
954.983	0.0156777
955.061	0.0157339
955.139	0.0158228
955.217	0.0158688
955.295	0.0158389
955.373	0.0158032
955.451	0.0158950
955.530	0.0159116
955.608	0.0157310
955.686	0.0159782
955.764	0.0158340
955.842	0.0155901
955.920	0.0157138
955.998	0.0158202
956.076	0.0158192
956.155	0.0156940
956.233	0.0156411
956.311	0.0156491
956.389	0.0157048
956.467	0.0157172
956.545	0.0155920
956.623	0.0156182
956.701	0.0156019
956.780	0.0158329
956.858	0.0155360
956.936	0.0156319
957.014	0.0155733
957.092	0.0155965
957.170	0.0156276
957.248	0.0157242
957.326	0.0157088
957.405	0.0157051
957.483	0.0156948
957.561	0.0155188
957.639	0.0155875
957.717	0.0157359
957.795	0.0156374
957.873	0.0157014
957.951	0.0157860
958.030	0.0156915
958.108	0.0156557
958.186	0.0155096
958.264	0.0157284
958.342	0.0157377
958.420	0.0156678
958.498	0.0157058
958.576	0.0157380
958.655	0.0158020
958.733	0.0158388
958.811	0.0158015
958.889	0.0156853
958.967	0.0156368
959.045	0.0158489
959.123	0.0157848
959.201	0.0158659
959.280	0.0157298
959.358	0.0159202
959.436	0.0159746
959.514	0.0158359
959.592	0.0159259
959.670	0.0158165
959.748	0.0158704
959.826	0.0159196
959.905	0.0157887
