05/17/2022	16:54:59	Ver.	4.1	UNKNOWN
Optical Delay	639.982744	Delta X		0.078125	Sweeps	1	Scan Rate	0/0
Coordinates	Axis 1	NaN	Axis 2	NaN	Axis 3	NaN	Axis 4	NaN	Axis 5	NaN	Axis 6	0.000000
TX Power	0.000000	RX Power	0.000000

639.983	0.0161755
640.061	0.0161150
640.139	0.0161273
640.217	0.0161131
640.295	0.0159429
640.373	0.0161458
640.451	0.0161390
640.530	0.0162389
640.608	0.0160884
640.686	0.0162003
640.764	0.0162102
640.842	0.0163142
640.920	0.0161227
640.998	0.0160914
641.076	0.0161416
641.155	0.0162486
641.233	0.0162022
641.311	0.0161051
641.389	0.0161736
641.467	0.0161543
641.545	0.0159306
641.623	0.0161282
641.701	0.0162679
641.780	0.0161317
641.858	0.0161578
641.936	0.0159402
642.014	0.0160300
642.092	0.0161158
642.170	0.0161955
642.248	0.0162491
642.326	0.0160354
642.405	0.0161327
642.483	0.0160297
642.561	0.0161864
642.639	0.0162300
642.717	0.0161507
642.795	0.0162466
642.873	0.0162780
642.951	0.0161488
643.030	0.0161721
643.108	0.0161134
643.186	0.0161942
643.264	0.0161587
643.342	0.0161196
643.420	0.0162595
643.498	0.0162109
643.576	0.0163885
643.655	0.0163490
643.733	0.0162106
643.811	0.0162388
643.889	0.0161711
643.967	0.0162127
644.045	0.0163361
644.123	0.0160833
644.201	0.0160497
644.280	0.0160837
644.358	0.0161118
644.436	0.0161500
644.514	0.0159743
644.592	0.0160265
644.670	0.0159875
644.748	0.0159643
644.826	0.0159778
644.905	0.0161343
644.983	0.0160619
645.061	0.0160204
645.139	0.0162543
645.217	0.0162505
645.295	0.0161767
645.373	0.0162798
645.451	0.0164073
645.530	0.0162734
645.608	0.0163042
645.686	0.0162469
645.764	0.0165094
645.842	0.0165936
645.920	0.0164628
645.998	0.0164851
646.076	0.0163701
646.155	0.0163592
646.233	0.0163268
646.311	0.0161423
646.389	0.0162841
646.467	0.0162106
646.545	0.0161568
646.623	0.0161134
646.701	0.0160558
646.780	0.0159281
646.858	0.0159451
646.936	0.0160755
647.014	0.0161037
647.092	0.0160170
647.170	0.0160807
647.248	0.0160070
647.326	0.0161515
647.405	0.0161993
647.483	0.0162128
647.561	0.0162758
647.639	0.0161824
647.717	0.0163165
647.795	0.0163742
647.873	0.0162529
647.951	0.0163938
648.030	0.0165495
648.108	0.0164396
648.186	0.0163982
648.264	0.0164390
648.342	0.0164038
648.420	0.0162654
648.498	0.0161573
648.576	0.0162532
648.655	0.0162913
648.733	0.0161639
648.811	0.0161336
648.889	0.0159933
648.967	0.0160416
649.045	0.0161652
649.123	0.0159427
649.201	0.0158549
649.280	0.0161761
649.358	0.0160524
649.436	0.0159671
649.514	0.0160133
649.592	0.0159964
649.670	0.0160520
649.748	0.0160920
649.826	0.0160844
649.905	0.0161173
649.983	0.0161741
650.061	0.0162228
650.139	0.0163222
650.217	0.0162428
650.295	0.0163094
650.373	0.0161992
650.451	0.0162782
650.530	0.0163126
650.608	0.0164130
650.686	0.0161746
650.764	0.0162548
650.842	0.0161958
650.920	0.0162286
650.998	0.0160833
651.076	0.0161553
651.155	0.0162634
651.233	0.0160741
651.311	0.0160906
651.389	0.0161796
651.467	0.0161871
651.545	0.0159441
651.623	0.0161905
651.701	0.0161948
651.780	0.0161314
651.858	0.0162113
651.936	0.0161478
652.014	0.0162598
652.092	0.0161927
652.170	0.0161420
652.248	0.0161127
652.326	0.0162222
652.405	0.0162319
652.483	0.0162170
652.561	0.0161950
652.639	0.0162448
652.717	0.0162720
652.795	0.0161448
652.873	0.0162306
652.951	0.0162569
653.030	0.0163419
653.108	0.0162845
653.186	0.0162441
653.264	0.0162507
653.342	0.0163068
653.420	0.0162023
653.498	0.0161644
653.576	0.0161740
653.655	0.0161852
653.733	0.0160962
653.811	0.0163636
653.889	0.0161553
653.967	0.0160857
654.045	0.0163001
654.123	0.0162218
654.201	0.0160609
654.280	0.0160885
654.358	0.0161684
654.436	0.0162263
654.514	0.0161396
654.592	0.0160725
654.670	0.0162030
654.748	0.0161128
654.826	0.0160393
654.905	0.0161321
654.983	0.0160621
655.061	0.0160112
655.139	0.0161222
655.217	0.0161399
655.295	0.0163131
655.373	0.0161490
655.451	0.0162599
655.530	0.0162955
655.608	0.0162457
655.686	0.0162707
655.764	0.0162077
655.842	0.0161841
655.920	0.0162334
655.998	0.0161887
656.076	0.0163151
656.155	0.0161884
656.233	0.0163374
656.311	0.0161837
656.389	0.0161161
656.467	0.0160430
656.545	0.0161593
656.623	0.0162083
656.701	0.0161707
656.780	0.0161663
656.858	0.0159348
656.936	0.0161108
657.014	0.0160582
657.092	0.0162333
657.170	0.0160268
657.248	0.0161958
657.326	0.0161662
657.405	0.0161999
657.483	0.0162262
657.561	0.0162620
657.639	0.0163168
657.717	0.0161761
657.795	0.0163310
657.873	0.0164612
657.951	0.0164325
658.030	0.0163513
658.108	0.0166010
658.186	0.0164161
658.264	0.0163670
658.342	0.0162769
658.420	0.0163170
658.498	0.0163780
658.576	0.0161609
658.655	0.0161008
658.733	0.0162145
658.811	0.0161852
658.889	0.0162096
658.967	0.0162062
659.045	0.0160752
659.123	0.0160335
659.201	0.0160857
659.280	0.0160496
659.358	0.0159121
659.436	0.0161849
659.514	0.0160040
659.592	0.0162838
659.670	0.0161289
659.748	0.0161114
659.826	0.0161351
659.905	0.0162681
659.983	0.0163490
660.061	0.0161645
660.139	0.0161832
660.217	0.0163917
660.295	0.0164783
660.373	0.0163651
660.451	0.0164552
660.530	0.0164314
660.608	0.0163792
660.686	0.0163087
660.764	0.0163380
660.842	0.0161881
660.920	0.0161571
660.998	0.0161909
661.076	0.0160854
661.155	0.0160829
661.233	0.0160068
661.311	0.0158406
661.389	0.0158092
661.467	0.0159374
661.545	0.0158791
661.623	0.0160050
661.701	0.0158474
661.780	0.0159103
661.858	0.0158966
661.936	0.0160973
662.014	0.0160196
662.092	0.0160653
662.170	0.0161668
662.248	0.0162672
662.326	0.0163734
662.405	0.0161250
662.483	0.0164837
662.561	0.0164280
662.639	0.0163929
662.717	0.0162928
662.795	0.0163903
662.873	0.0163797
662.951	0.0163209
663.030	0.0162603
663.108	0.0162225
663.186	0.0161725
663.264	0.0161069
663.342	0.0160887
663.420	0.0158698
663.498	0.0158826
663.576	0.0157518
663.655	0.0157387
663.733	0.0157280
663.811	0.0158743
663.889	0.0157043
663.967	0.0160083
664.045	0.0159171
664.123	0.0160009
664.201	0.0162447
664.280	0.0161189
664.358	0.0163976
664.436	0.0164409
664.514	0.0164249
664.592	0.0165794
664.670	0.0165009
664.748	0.0165568
664.826	0.0165284
664.905	0.0166176
664.983	0.0164776
665.061	0.0165685
665.139	0.0165162
665.217	0.0165563
665.295	0.0165096
665.373	0.0163837
665.451	0.0164339
665.530	0.0163405
665.608	0.0163985
665.686	0.0162728
665.764	0.0162426
665.842	0.0161456
665.920	0.0162278
665.998	0.0162395
666.076	0.0161267
666.155	0.0162608
666.233	0.0162724
666.311	0.0163837
666.389	0.0164301
666.467	0.0163386
666.545	0.0163641
666.623	0.0164443
666.701	0.0164296
666.780	0.0164975
666.858	0.0164883
666.936	0.0164023
667.014	0.0163694
667.092	0.0164027
667.170	0.0164258
667.248	0.0164693
667.326	0.0163469
667.405	0.0162194
667.483	0.0164676
667.561	0.0162919
667.639	0.0162796
667.717	0.0162479
667.795	0.0162621
667.873	0.0162669
667.951	0.0161738
668.030	0.0161868
668.108	0.0161456
668.186	0.0163134
668.264	0.0162484
668.342	0.0161576
668.420	0.0161829
668.498	0.0162679
668.576	0.0160757
668.655	0.0159745
668.733	0.0160412
668.811	0.0162070
668.889	0.0160699
668.967	0.0160249
669.045	0.0159821
669.123	0.0160461
669.201	0.0161131
669.280	0.0159991
669.358	0.0158527
669.436	0.0160115
669.514	0.0158944
669.592	0.0159416
669.670	0.0159734
669.748	0.0160522
669.826	0.0159730
669.905	0.0159995
669.983	0.0159516
670.061	0.0160574
670.139	0.0160074
670.217	0.0160830
670.295	0.0161674
670.373	0.0160335
670.451	0.0160104
670.530	0.0159240
670.608	0.0158935
670.686	0.0159713
670.764	0.0160832
670.842	0.0157437
670.920	0.0159505
670.998	0.0158043
671.076	0.0157410
671.155	0.0157703
671.233	0.0157230
671.311	0.0158029
671.389	0.0157456
671.467	0.0157851
671.545	0.0159105
671.623	0.0160284
671.701	0.0161977
671.780	0.0162156
671.858	0.0162918
671.936	0.0164114
672.014	0.0165416
672.092	0.0164967
672.170	0.0166739
672.248	0.0168111
672.326	0.0166735
672.405	0.0168202
672.483	0.0168433
672.561	0.0167186
672.639	0.0165300
672.717	0.0165561
672.795	0.0164756
672.873	0.0163172
672.951	0.0163857
673.030	0.0163369
673.108	0.0162901
673.186	0.0160664
673.264	0.0160601
673.342	0.0160792
673.420	0.0161299
673.498	0.0160970
673.576	0.0160950
673.655	0.0161493
673.733	0.0161700
673.811	0.0161997
673.889	0.0160706
673.967	0.0162764
674.045	0.0163698
674.123	0.0163720
674.201	0.0163909
674.280	0.0164624
674.358	0.0163689
674.436	0.0165598
674.514	0.0165579
674.592	0.0164590
674.670	0.0165173
674.748	0.0165199
674.826	0.0164944
674.905	0.0165573
674.983	0.0165646
675.061	0.0164870
675.139	0.0165329
675.217	0.0163225
675.295	0.0165446
675.373	0.0165504
675.451	0.0164986
675.530	0.0163019
675.608	0.0162175
675.686	0.0163950
675.764	0.0162510
675.842	0.0162232
675.920	0.0162383
675.998	0.0159520
676.076	0.0161301
676.155	0.0159619
676.233	0.0157692
676.311	0.0158947
676.389	0.0157931
676.467	0.0157288
676.545	0.0157492
676.623	0.0156514
676.701	0.0156627
676.780	0.0155814
676.858	0.0156969
676.936	0.0155785
677.014	0.0156617
677.092	0.0157381
677.170	0.0157410
677.248	0.0159151
677.326	0.0158277
677.405	0.0158468
677.483	0.0159696
677.561	0.0158714
677.639	0.0159499
677.717	0.0161066
677.795	0.0162303
677.873	0.0162569
677.951	0.0162830
678.030	0.0164233
678.108	0.0164587
678.186	0.0164431
678.264	0.0163553
678.342	0.0163692
678.420	0.0163985
678.498	0.0163734
678.576	0.0164471
678.655	0.0165187
678.733	0.0165453
678.811	0.0163629
678.889	0.0163618
678.967	0.0163741
679.045	0.0164253
679.123	0.0164854
679.201	0.0164067
679.280	0.0164839
679.358	0.0167071
679.436	0.0164872
679.514	0.0165027
679.592	0.0165214
679.670	0.0164891
679.748	0.0163879
679.826	0.0163450
679.905	0.0162148
679.983	0.0160459
680.061	0.0160275
680.139	0.0158588
680.217	0.0156954
680.295	0.0154917
680.373	0.0153422
680.451	0.0151807
680.530	0.0151626
680.608	0.0151997
680.686	0.0151804
680.764	0.0149871
680.842	0.0151647
680.920	0.0151604
680.998	0.0151467
681.076	0.0154912
681.155	0.0155323
681.233	0.0155649
681.311	0.0158492
681.389	0.0158801
681.467	0.0161249
681.545	0.0162452
681.623	0.0164600
681.701	0.0165189
681.780	0.0167405
681.858	0.0170367
681.936	0.0170509
682.014	0.0171610
682.092	0.0173877
682.170	0.0174415
682.248	0.0174189
682.326	0.0176059
682.405	0.0175456
682.483	0.0174682
682.561	0.0174917
682.639	0.0174634
682.717	0.0173933
682.795	0.0170422
682.873	0.0171336
682.951	0.0169093
683.030	0.0166390
683.108	0.0166226
683.186	0.0163615
683.264	0.0163471
683.342	0.0163031
683.420	0.0160099
683.498	0.0157978
683.576	0.0158449
683.655	0.0157575
683.733	0.0155715
683.811	0.0155424
683.889	0.0154293
683.967	0.0153059
684.045	0.0153074
684.123	0.0152656
684.201	0.0153375
684.280	0.0152574
684.358	0.0154099
684.436	0.0153676
684.514	0.0156142
684.592	0.0156115
684.670	0.0158674
684.748	0.0160744
684.826	0.0162203
684.905	0.0162512
684.983	0.0165051
685.061	0.0167165
685.139	0.0167062
685.217	0.0168899
685.295	0.0170451
685.373	0.0170467
685.451	0.0170651
685.530	0.0171624
685.608	0.0171461
685.686	0.0171077
685.764	0.0169444
685.842	0.0168589
685.920	0.0168092
685.998	0.0164775
686.076	0.0163811
686.155	0.0162139
686.233	0.0160709
686.311	0.0160138
686.389	0.0157604
686.467	0.0157841
686.545	0.0156136
686.623	0.0155009
686.701	0.0154954
686.780	0.0154646
686.858	0.0154508
686.936	0.0153868
687.014	0.0155813
687.092	0.0155936
687.170	0.0154839
687.248	0.0155099
687.326	0.0156602
687.405	0.0158245
687.483	0.0156847
687.561	0.0155978
687.639	0.0155894
687.717	0.0157801
687.795	0.0158562
687.873	0.0159770
687.951	0.0160905
688.030	0.0161292
688.108	0.0162343
688.186	0.0165317
688.264	0.0164679
688.342	0.0166644
688.420	0.0167313
688.498	0.0166338
688.576	0.0168453
688.655	0.0169385
688.733	0.0169547
688.811	0.0170684
688.889	0.0170071
688.967	0.0171281
689.045	0.0170952
689.123	0.0170319
689.201	0.0169758
689.280	0.0170818
689.358	0.0171280
689.436	0.0169198
689.514	0.0167729
689.592	0.0168690
689.670	0.0167964
689.748	0.0165563
689.826	0.0164234
689.905	0.0163068
689.983	0.0162196
690.061	0.0162528
690.139	0.0160346
690.217	0.0160275
690.295	0.0158355
690.373	0.0158573
690.451	0.0157641
690.530	0.0157565
690.608	0.0158064
690.686	0.0157268
690.764	0.0157661
690.842	0.0157178
690.920	0.0156112
690.998	0.0157559
691.076	0.0155815
691.155	0.0155019
691.233	0.0154107
691.311	0.0156217
691.389	0.0154965
691.467	0.0154081
691.545	0.0153983
691.623	0.0154099
691.701	0.0154831
691.780	0.0152740
691.858	0.0153957
691.936	0.0154733
692.014	0.0156219
692.092	0.0158372
692.170	0.0158887
692.248	0.0160322
692.326	0.0161167
692.405	0.0162960
692.483	0.0164573
692.561	0.0164727
692.639	0.0164622
692.717	0.0166384
692.795	0.0166116
692.873	0.0166633
692.951	0.0167670
693.030	0.0167661
693.108	0.0167453
693.186	0.0168173
693.264	0.0167892
693.342	0.0164606
693.420	0.0164697
693.498	0.0165975
693.576	0.0166536
693.655	0.0164427
693.733	0.0164867
693.811	0.0163033
693.889	0.0162650
693.967	0.0162483
694.045	0.0161745
694.123	0.0162261
694.201	0.0160488
694.280	0.0161311
694.358	0.0160275
694.436	0.0160648
694.514	0.0160357
694.592	0.0161754
694.670	0.0161373
694.748	0.0161229
694.826	0.0161617
694.905	0.0161288
694.983	0.0160047
695.061	0.0159666
695.139	0.0159177
695.217	0.0158805
695.295	0.0157844
695.373	0.0156937
695.451	0.0156744
695.530	0.0158637
695.608	0.0158257
695.686	0.0158599
695.764	0.0159036
695.842	0.0159779
695.920	0.0160198
695.998	0.0161877
696.076	0.0160616
696.155	0.0161241
696.233	0.0162661
696.311	0.0163093
696.389	0.0163594
696.467	0.0163457
696.545	0.0162769
696.623	0.0165255
696.701	0.0164805
696.780	0.0166325
696.858	0.0165728
696.936	0.0165270
697.014	0.0164774
697.092	0.0166159
697.170	0.0164653
697.248	0.0162967
697.326	0.0163659
697.405	0.0163695
697.483	0.0161488
697.561	0.0162373
697.639	0.0161029
697.717	0.0161492
697.795	0.0161777
697.873	0.0161488
697.951	0.0160664
698.030	0.0162052
698.108	0.0161513
698.186	0.0161211
698.264	0.0162362
698.342	0.0161959
698.420	0.0161746
698.498	0.0162305
698.576	0.0162711
698.655	0.0162781
698.733	0.0161479
698.811	0.0161745
698.889	0.0160612
698.967	0.0161527
699.045	0.0161118
699.123	0.0159021
699.201	0.0158520
699.280	0.0158014
699.358	0.0157469
699.436	0.0156856
699.514	0.0156246
699.592	0.0155058
699.670	0.0154697
699.748	0.0154205
699.826	0.0153821
699.905	0.0153551
699.983	0.0154536
700.061	0.0152319
700.139	0.0153059
700.217	0.0154523
700.295	0.0153777
700.373	0.0154491
700.451	0.0155432
700.530	0.0155222
700.608	0.0157397
700.686	0.0157693
700.764	0.0158910
700.842	0.0159269
700.920	0.0160191
700.998	0.0160875
701.076	0.0161356
701.155	0.0163788
701.233	0.0165047
701.311	0.0167218
701.389	0.0167451
701.467	0.0167125
701.545	0.0169666
701.623	0.0169664
701.701	0.0170480
701.780	0.0170889
701.858	0.0171714
701.936	0.0170028
702.014	0.0171336
702.092	0.0171915
702.170	0.0172662
702.248	0.0171871
702.326	0.0171067
702.405	0.0172317
702.483	0.0171938
702.561	0.0170123
702.639	0.0169189
702.717	0.0167674
702.795	0.0166742
702.873	0.0166247
702.951	0.0164166
703.030	0.0161619
703.108	0.0161523
703.186	0.0161647
703.264	0.0158473
703.342	0.0156966
703.420	0.0157230
703.498	0.0157088
703.576	0.0156490
703.655	0.0154588
703.733	0.0154143
703.811	0.0153267
703.889	0.0153087
703.967	0.0153709
704.045	0.0154009
704.123	0.0153921
704.201	0.0155924
704.280	0.0158588
704.358	0.0158998
704.436	0.0159347
704.514	0.0161028
704.592	0.0161406
704.670	0.0161465
704.748	0.0162018
704.826	0.0162792
704.905	0.0163755
704.983	0.0164575
705.061	0.0163854
705.139	0.0162509
705.217	0.0164364
705.295	0.0162489
705.373	0.0162376
705.451	0.0161896
705.530	0.0161252
705.608	0.0163256
705.686	0.0162518
705.764	0.0161516
705.842	0.0160950
705.920	0.0159899
705.998	0.0160836
706.076	0.0160662
706.155	0.0159873
706.233	0.0158717
706.311	0.0158282
706.389	0.0156992
706.467	0.0156294
706.545	0.0157000
706.623	0.0155639
706.701	0.0155958
706.780	0.0154507
706.858	0.0156118
706.936	0.0157372
707.014	0.0157862
707.092	0.0157919
707.170	0.0158231
707.248	0.0158055
707.326	0.0161038
707.405	0.0159830
707.483	0.0159933
707.561	0.0160408
707.639	0.0161205
707.717	0.0160872
707.795	0.0162582
707.873	0.0161401
707.951	0.0162953
708.030	0.0164381
708.108	0.0163894
708.186	0.0165727
708.264	0.0165589
708.342	0.0168281
708.420	0.0168470
708.498	0.0170398
708.576	0.0172511
708.655	0.0172443
708.733	0.0173263
708.811	0.0173383
708.889	0.0175043
708.967	0.0174780
709.045	0.0174425
709.123	0.0174554
709.201	0.0173653
709.280	0.0173136
709.358	0.0172041
709.436	0.0171002
709.514	0.0170295
709.592	0.0169141
709.670	0.0169657
709.748	0.0169109
709.826	0.0169242
709.905	0.0165735
709.983	0.0164421
710.061	0.0164075
710.139	0.0161913
710.217	0.0160637
710.295	0.0159731
710.373	0.0157850
710.451	0.0157294
710.530	0.0155347
710.608	0.0153043
710.686	0.0154468
710.764	0.0153529
710.842	0.0151197
710.920	0.0151435
710.998	0.0150492
711.076	0.0151042
711.155	0.0152126
711.233	0.0151172
711.311	0.0149488
711.389	0.0152500
711.467	0.0152230
711.545	0.0153440
711.623	0.0153929
711.701	0.0153889
711.780	0.0154160
711.858	0.0154959
711.936	0.0155003
712.014	0.0155765
712.092	0.0156789
712.170	0.0157764
712.248	0.0156871
712.326	0.0156308
712.405	0.0158573
712.483	0.0159027
712.561	0.0160129
712.639	0.0161057
712.717	0.0162623
712.795	0.0163136
712.873	0.0164031
712.951	0.0165102
713.030	0.0166634
713.108	0.0167297
713.186	0.0166947
713.264	0.0169484
713.342	0.0170492
713.420	0.0171176
713.498	0.0172083
713.576	0.0170802
713.655	0.0170547
713.733	0.0170956
713.811	0.0171381
713.889	0.0171932
713.967	0.0170875
714.045	0.0170345
714.123	0.0170158
714.201	0.0169485
714.280	0.0169926
714.358	0.0168741
714.436	0.0168612
714.514	0.0168056
714.592	0.0164967
714.670	0.0164636
714.748	0.0164307
714.826	0.0164680
714.905	0.0163636
714.983	0.0161372
715.061	0.0159173
715.139	0.0160722
715.217	0.0159016
715.295	0.0156841
715.373	0.0157066
715.451	0.0157162
715.530	0.0155914
715.608	0.0155782
715.686	0.0155910
715.764	0.0155190
715.842	0.0155443
715.920	0.0154879
715.998	0.0155920
716.076	0.0156605
716.155	0.0158150
716.233	0.0158968
716.311	0.0159940
716.389	0.0161505
716.467	0.0162970
716.545	0.0163033
716.623	0.0163173
716.701	0.0163842
716.780	0.0165758
716.858	0.0166862
716.936	0.0166406
717.014	0.0165781
717.092	0.0165622
717.170	0.0165154
717.248	0.0164774
717.326	0.0164537
717.405	0.0162215
717.483	0.0161467
717.561	0.0160361
717.639	0.0160013
717.717	0.0158067
717.795	0.0157963
717.873	0.0156335
717.951	0.0156635
718.030	0.0157263
718.108	0.0154343
718.186	0.0154297
718.264	0.0155328
718.342	0.0154174
718.420	0.0156065
718.498	0.0154906
718.576	0.0154490
718.655	0.0154769
718.733	0.0155556
718.811	0.0156005
718.889	0.0156203
718.967	0.0156067
719.045	0.0157677
719.123	0.0157446
719.201	0.0157739
719.280	0.0160147
719.358	0.0158511
719.436	0.0160774
719.514	0.0162659
719.592	0.0163516
719.670	0.0163894
719.748	0.0166354
719.826	0.0167861
719.905	0.0167336
719.983	0.0167924
720.061	0.0169785
720.139	0.0170291
720.217	0.0169991
720.295	0.0170519
720.373	0.0170965
720.451	0.0169636
720.530	0.0169862
720.608	0.0169155
720.686	0.0167068
720.764	0.0165701
720.842	0.0166399
720.920	0.0164095
720.998	0.0162642
721.076	0.0162201
721.155	0.0160834
721.233	0.0160320
721.311	0.0159635
721.389	0.0159119
721.467	0.0159197
721.545	0.0159079
721.623	0.0158151
721.701	0.0158453
721.780	0.0157295
721.858	0.0157882
721.936	0.0158797
722.014	0.0159118
722.092	0.0159557
722.170	0.0160197
722.248	0.0158319
722.326	0.0158008
722.405	0.0158495
722.483	0.0157858
722.561	0.0155740
722.639	0.0155958
722.717	0.0155356
722.795	0.0153944
722.873	0.0153561
722.951	0.0152544
723.030	0.0152708
723.108	0.0154029
723.186	0.0154219
723.264	0.0154978
723.342	0.0156257
723.420	0.0158078
723.498	0.0158507
723.576	0.0159908
723.655	0.0161084
723.733	0.0161985
723.811	0.0164434
723.889	0.0166211
723.967	0.0166832
724.045	0.0168261
724.123	0.0169601
724.201	0.0171201
724.280	0.0171006
724.358	0.0171404
724.436	0.0171285
724.514	0.0172659
724.592	0.0173409
724.670	0.0173640
724.748	0.0173538
724.826	0.0172501
724.905	0.0173563
724.983	0.0173034
725.061	0.0172181
725.139	0.0171307
725.217	0.0171077
725.295	0.0169655
725.373	0.0166502
725.451	0.0167510
725.530	0.0166561
725.608	0.0163991
725.686	0.0165263
725.764	0.0162543
725.842	0.0163218
725.920	0.0160139
725.998	0.0159572
726.076	0.0158762
726.155	0.0159762
726.233	0.0158051
726.311	0.0157689
726.389	0.0156268
726.467	0.0156290
726.545	0.0154930
726.623	0.0156528
726.701	0.0154941
726.780	0.0154605
726.858	0.0154418
726.936	0.0153941
727.014	0.0154729
727.092	0.0153406
727.170	0.0154601
727.248	0.0155033
727.326	0.0155186
727.405	0.0154888
727.483	0.0155646
727.561	0.0155299
727.639	0.0157855
727.717	0.0159721
727.795	0.0159509
727.873	0.0159829
727.951	0.0160391
728.030	0.0161660
728.108	0.0162607
728.186	0.0163438
728.264	0.0164399
728.342	0.0165079
728.420	0.0166320
728.498	0.0166827
728.576	0.0167590
728.655	0.0167281
728.733	0.0167205
728.811	0.0167206
728.889	0.0166407
728.967	0.0164948
729.045	0.0164021
729.123	0.0162924
729.201	0.0162543
729.280	0.0160950
729.358	0.0159420
729.436	0.0158533
729.514	0.0158201
729.592	0.0157130
729.670	0.0155989
729.748	0.0156500
729.826	0.0155862
729.905	0.0157136
729.983	0.0157084
730.061	0.0156212
730.139	0.0156095
730.217	0.0157951
730.295	0.0158550
730.373	0.0159364
730.451	0.0159941
730.530	0.0160728
730.608	0.0163496
730.686	0.0164559
730.764	0.0164281
730.842	0.0168616
730.920	0.0169583
730.998	0.0169882
731.076	0.0170174
731.155	0.0171613
731.233	0.0172012
731.311	0.0173098
731.389	0.0174253
731.467	0.0171279
731.545	0.0171985
731.623	0.0173047
731.701	0.0170918
731.780	0.0172554
731.858	0.0170916
731.936	0.0169638
732.014	0.0168444
732.092	0.0167710
732.170	0.0168919
732.248	0.0169029
732.326	0.0167815
732.405	0.0167016
732.483	0.0166469
732.561	0.0163165
732.639	0.0163598
732.717	0.0161480
732.795	0.0162587
732.873	0.0163272
732.951	0.0160723
733.030	0.0160749
733.108	0.0160999
733.186	0.0160738
733.264	0.0160229
733.342	0.0159026
733.420	0.0158022
733.498	0.0157903
733.576	0.0157626
733.655	0.0157129
733.733	0.0155389
733.811	0.0153100
733.889	0.0153728
733.967	0.0152647
734.045	0.0149904
734.123	0.0149360
734.201	0.0148507
734.280	0.0146363
734.358	0.0147977
734.436	0.0145889
734.514	0.0148866
734.592	0.0148701
734.670	0.0148050
734.748	0.0149707
734.826	0.0148846
734.905	0.0150737
734.983	0.0152932
735.061	0.0153114
735.139	0.0155862
735.217	0.0158771
735.295	0.0158154
735.373	0.0160077
735.451	0.0163423
735.530	0.0164156
735.608	0.0164280
735.686	0.0166974
735.764	0.0166436
735.842	0.0168126
735.920	0.0168962
735.998	0.0169514
736.076	0.0170131
736.155	0.0169837
736.233	0.0170767
736.311	0.0172227
736.389	0.0171598
736.467	0.0171781
736.545	0.0171442
736.623	0.0170587
736.701	0.0170959
736.780	0.0168909
736.858	0.0168688
736.936	0.0167671
737.014	0.0166228
737.092	0.0165572
737.170	0.0165160
737.248	0.0165256
737.326	0.0163362
737.405	0.0161640
737.483	0.0160651
737.561	0.0159986
737.639	0.0159415
737.717	0.0159999
737.795	0.0158685
737.873	0.0159123
737.951	0.0160034
738.030	0.0157857
738.108	0.0159244
738.186	0.0160995
738.264	0.0161487
738.342	0.0161684
738.420	0.0161440
738.498	0.0162214
738.576	0.0164204
738.655	0.0164822
738.733	0.0164413
738.811	0.0165797
738.889	0.0163729
738.967	0.0165656
739.045	0.0164543
739.123	0.0165298
739.201	0.0164722
739.280	0.0166177
739.358	0.0166912
739.436	0.0166695
739.514	0.0168107
739.592	0.0166681
739.670	0.0167713
739.748	0.0166258
739.826	0.0166445
739.905	0.0165464
739.983	0.0166641
740.061	0.0165501
740.139	0.0164779
740.217	0.0164648
740.295	0.0163477
740.373	0.0163260
740.451	0.0162395
740.530	0.0162039
740.608	0.0160139
740.686	0.0159556
740.764	0.0159991
740.842	0.0159189
740.920	0.0157296
740.998	0.0157923
741.076	0.0158030
741.155	0.0155521
741.233	0.0153675
741.311	0.0153691
741.389	0.0152587
741.467	0.0151263
741.545	0.0150600
741.623	0.0150935
741.701	0.0151158
741.780	0.0148965
741.858	0.0148774
741.936	0.0149975
742.014	0.0151089
742.092	0.0149574
742.170	0.0150398
742.248	0.0150450
742.326	0.0151875
742.405	0.0153387
742.483	0.0151888
742.561	0.0155188
742.639	0.0157980
742.717	0.0156480
742.795	0.0156931
742.873	0.0159582
742.951	0.0160432
743.030	0.0162048
743.108	0.0162614
743.186	0.0164088
743.264	0.0165527
743.342	0.0166483
743.420	0.0168060
743.498	0.0168320
743.576	0.0168549
743.655	0.0171091
743.733	0.0171033
743.811	0.0170685
743.889	0.0171546
743.967	0.0172630
744.045	0.0174214
744.123	0.0174669
744.201	0.0176496
744.280	0.0176702
744.358	0.0176237
744.436	0.0175867
744.514	0.0176372
744.592	0.0177622
744.670	0.0175407
744.748	0.0175312
744.826	0.0173473
744.905	0.0172202
744.983	0.0171214
745.061	0.0168576
745.139	0.0165979
745.217	0.0163857
745.295	0.0162663
745.373	0.0161929
745.451	0.0160226
745.530	0.0159695
745.608	0.0158524
745.686	0.0157797
745.764	0.0158125
745.842	0.0158654
745.920	0.0157542
745.998	0.0159916
746.076	0.0160789
746.155	0.0159808
746.233	0.0160758
746.311	0.0160999
746.389	0.0161414
746.467	0.0160712
746.545	0.0162353
746.623	0.0162410
746.701	0.0161507
746.780	0.0162755
746.858	0.0161719
746.936	0.0162636
747.014	0.0163705
747.092	0.0164850
747.170	0.0163490
747.248	0.0162167
747.326	0.0162874
747.405	0.0164360
747.483	0.0164423
747.561	0.0163332
747.639	0.0163705
747.717	0.0164799
747.795	0.0164009
747.873	0.0163309
747.951	0.0163407
748.030	0.0161687
748.108	0.0162161
748.186	0.0162022
748.264	0.0160576
748.342	0.0160006
748.420	0.0160426
748.498	0.0159502
748.576	0.0158337
748.655	0.0158020
748.733	0.0158247
748.811	0.0156577
748.889	0.0155519
748.967	0.0155784
749.045	0.0156123
749.123	0.0154829
749.201	0.0155000
749.280	0.0155756
749.358	0.0155356
749.436	0.0154720
749.514	0.0155290
749.592	0.0155193
749.670	0.0155037
749.748	0.0153349
749.826	0.0153970
749.905	0.0154565
749.983	0.0155507
750.061	0.0154868
750.139	0.0156152
750.217	0.0157264
750.295	0.0157825
750.373	0.0158084
750.451	0.0156847
750.530	0.0157362
750.608	0.0160987
750.686	0.0161376
750.764	0.0161388
750.842	0.0162732
750.920	0.0165510
750.998	0.0165407
751.076	0.0165639
751.155	0.0167006
751.233	0.0168438
751.311	0.0169521
751.389	0.0170909
751.467	0.0171980
751.545	0.0172280
751.623	0.0172427
751.701	0.0172372
751.780	0.0173988
751.858	0.0173709
751.936	0.0174019
752.014	0.0173796
752.092	0.0174144
752.170	0.0172697
752.248	0.0173905
752.326	0.0174133
752.405	0.0173311
752.483	0.0172959
752.561	0.0172620
752.639	0.0171782
752.717	0.0170453
752.795	0.0169998
752.873	0.0169144
752.951	0.0165498
753.030	0.0165002
753.108	0.0162305
753.186	0.0162424
753.264	0.0159640
753.342	0.0158974
753.420	0.0156842
753.498	0.0155591
753.576	0.0154981
753.655	0.0153050
753.733	0.0152258
753.811	0.0153530
753.889	0.0152857
753.967	0.0154630
754.045	0.0153506
754.123	0.0154050
754.201	0.0156121
754.280	0.0155510
754.358	0.0157303
754.436	0.0158192
754.514	0.0157620
754.592	0.0159059
754.670	0.0160953
754.748	0.0160621
754.826	0.0162936
754.905	0.0163471
754.983	0.0162666
755.061	0.0163403
755.139	0.0163678
755.217	0.0163222
755.295	0.0162138
755.373	0.0163203
755.451	0.0162725
755.530	0.0161540
755.608	0.0160459
755.686	0.0159834
755.764	0.0159644
755.842	0.0159528
755.920	0.0157289
755.998	0.0155454
756.076	0.0156628
756.155	0.0155714
756.233	0.0156916
756.311	0.0155680
756.389	0.0155619
756.467	0.0157648
756.545	0.0155387
756.623	0.0155912
756.701	0.0156735
756.780	0.0157887
756.858	0.0158933
756.936	0.0157266
757.014	0.0158790
757.092	0.0156809
757.170	0.0157481
757.248	0.0158132
757.326	0.0157809
757.405	0.0156771
757.483	0.0157901
757.561	0.0158102
757.639	0.0156638
757.717	0.0156747
757.795	0.0157452
757.873	0.0156530
757.951	0.0156618
758.030	0.0158113
758.108	0.0157286
758.186	0.0159007
758.264	0.0159395
758.342	0.0160402
758.420	0.0161916
758.498	0.0161628
758.576	0.0162669
758.655	0.0164985
758.733	0.0164781
758.811	0.0164683
758.889	0.0164569
758.967	0.0168328
759.045	0.0167751
759.123	0.0167702
759.201	0.0167853
759.280	0.0168562
759.358	0.0168830
759.436	0.0168910
759.514	0.0170164
759.592	0.0171156
759.670	0.0171152
759.748	0.0170271
759.826	0.0170484
759.905	0.0171393
759.983	0.0170908
760.061	0.0172000
760.139	0.0171935
760.217	0.0172758
760.295	0.0172514
760.373	0.0172051
760.451	0.0172244
760.530	0.0171682
760.608	0.0169823
760.686	0.0168410
760.764	0.0168174
760.842	0.0167303
760.920	0.0165108
760.998	0.0162560
761.076	0.0160702
761.155	0.0158901
761.233	0.0157610
761.311	0.0155012
761.389	0.0153254
761.467	0.0151559
761.545	0.0149920
761.623	0.0148993
761.701	0.0148473
761.780	0.0147839
761.858	0.0147639
761.936	0.0148638
762.014	0.0148633
762.092	0.0148681
762.170	0.0151163
762.248	0.0153442
762.326	0.0155409
762.405	0.0156253
762.483	0.0158379
762.561	0.0161014
762.639	0.0161890
762.717	0.0163178
762.795	0.0165241
762.873	0.0166341
762.951	0.0166898
763.030	0.0167306
763.108	0.0167912
763.186	0.0168378
763.264	0.0167568
763.342	0.0165883
763.420	0.0166915
763.498	0.0163875
763.576	0.0162350
763.655	0.0160485
763.733	0.0162011
763.811	0.0159906
763.889	0.0158604
763.967	0.0156904
764.045	0.0156220
764.123	0.0155702
764.201	0.0155831
764.280	0.0157400
764.358	0.0156290
764.436	0.0156291
764.514	0.0159088
764.592	0.0158714
764.670	0.0158788
764.748	0.0160188
764.826	0.0160358
764.905	0.0162074
764.983	0.0163263
765.061	0.0163888
765.139	0.0162846
765.217	0.0162305
765.295	0.0164758
765.373	0.0163083
765.451	0.0162838
765.530	0.0163266
765.608	0.0161759
765.686	0.0160940
765.764	0.0160589
765.842	0.0161343
765.920	0.0161251
765.998	0.0161452
766.076	0.0161096
766.155	0.0160902
766.233	0.0162183
766.311	0.0162714
766.389	0.0163584
766.467	0.0162946
766.545	0.0162837
766.623	0.0164569
766.701	0.0164538
766.780	0.0165045
766.858	0.0164246
766.936	0.0165318
767.014	0.0165308
767.092	0.0164922
767.170	0.0165131
767.248	0.0165633
767.326	0.0165163
767.405	0.0165646
767.483	0.0165888
767.561	0.0165594
767.639	0.0167010
767.717	0.0167041
767.795	0.0167357
767.873	0.0169260
767.951	0.0170325
768.030	0.0169202
768.108	0.0170005
768.186	0.0170065
768.264	0.0170113
768.342	0.0169708
768.420	0.0170470
768.498	0.0171107
768.576	0.0170191
768.655	0.0169642
768.733	0.0168118
768.811	0.0167186
768.889	0.0165953
768.967	0.0165601
769.045	0.0163884
769.123	0.0161635
769.201	0.0161688
769.280	0.0159399
769.358	0.0157626
769.436	0.0156074
769.514	0.0154707
769.592	0.0153710
769.670	0.0152680
769.748	0.0151505
769.826	0.0151921
769.905	0.0152298
769.983	0.0153452
770.061	0.0154297
770.139	0.0155708
770.217	0.0155383
770.295	0.0157063
770.373	0.0157918
770.451	0.0159892
770.530	0.0160135
770.608	0.0162602
770.686	0.0163084
770.764	0.0162402
770.842	0.0163918
770.920	0.0162821
770.998	0.0165189
771.076	0.0163728
771.155	0.0166227
771.233	0.0165852
771.311	0.0163303
771.389	0.0163601
771.467	0.0163676
771.545	0.0161375
771.623	0.0160165
771.701	0.0160023
771.780	0.0159657
771.858	0.0157962
771.936	0.0156463
772.014	0.0156220
772.092	0.0155460
772.170	0.0155280
772.248	0.0154023
772.326	0.0153626
772.405	0.0155441
772.483	0.0156275
772.561	0.0157802
772.639	0.0156813
772.717	0.0157713
772.795	0.0160960
772.873	0.0159907
772.951	0.0160796
773.030	0.0162254
773.108	0.0164193
773.186	0.0164001
773.264	0.0164677
773.342	0.0165691
773.420	0.0166242
773.498	0.0165176
773.576	0.0165558
773.655	0.0164908
773.733	0.0165178
773.811	0.0164413
773.889	0.0165281
773.967	0.0164445
774.045	0.0164401
774.123	0.0164277
774.201	0.0164272
774.280	0.0164468
774.358	0.0164991
774.436	0.0164701
774.514	0.0165453
774.592	0.0164780
774.670	0.0164436
774.748	0.0166103
774.826	0.0165726
774.905	0.0164230
774.983	0.0165148
775.061	0.0165679
775.139	0.0166006
775.217	0.0166712
775.295	0.0166305
775.373	0.0166903
775.451	0.0165966
775.530	0.0166857
775.608	0.0166604
775.686	0.0167181
775.764	0.0167764
775.842	0.0167908
775.920	0.0168297
775.998	0.0167693
776.076	0.0166328
776.155	0.0167360
776.233	0.0167046
776.311	0.0167612
776.389	0.0165781
776.467	0.0165100
776.545	0.0165440
776.623	0.0163864
776.701	0.0163267
776.780	0.0163268
776.858	0.0161255
776.936	0.0160482
777.014	0.0161359
777.092	0.0160777
777.170	0.0157420
777.248	0.0155788
777.326	0.0154958
777.405	0.0154375
777.483	0.0153659
777.561	0.0152867
777.639	0.0152539
777.717	0.0151020
777.795	0.0151997
777.873	0.0152637
777.951	0.0152393
778.030	0.0153410
778.108	0.0153699
778.186	0.0155401
778.264	0.0156966
778.342	0.0156010
778.420	0.0155807
778.498	0.0159658
778.576	0.0157777
778.655	0.0160509
778.733	0.0161595
778.811	0.0162086
778.889	0.0161850
778.967	0.0164133
779.045	0.0164697
779.123	0.0164841
779.201	0.0165079
779.280	0.0165184
779.358	0.0166858
779.436	0.0165652
779.514	0.0164775
779.592	0.0163216
779.670	0.0162806
779.748	0.0163219
779.826	0.0161280
779.905	0.0160581
779.983	0.0159579
780.061	0.0159993
780.139	0.0157843
780.217	0.0158392
780.295	0.0158233
780.373	0.0157754
780.451	0.0156316
780.530	0.0159420
780.608	0.0158601
780.686	0.0158512
780.764	0.0160493
780.842	0.0160285
780.920	0.0162270
780.998	0.0162643
781.076	0.0165002
781.155	0.0164542
781.233	0.0165327
781.311	0.0166814
781.389	0.0165737
781.467	0.0167559
781.545	0.0167868
781.623	0.0168247
781.701	0.0167451
781.780	0.0167413
781.858	0.0166335
781.936	0.0165565
782.014	0.0166660
782.092	0.0167071
782.170	0.0166136
782.248	0.0164800
782.326	0.0164755
782.405	0.0163292
782.483	0.0165176
782.561	0.0164308
782.639	0.0163438
782.717	0.0164565
782.795	0.0164919
782.873	0.0165357
782.951	0.0164680
783.030	0.0163267
783.108	0.0161954
783.186	0.0162947
783.264	0.0162973
783.342	0.0161986
783.420	0.0161274
783.498	0.0162890
783.576	0.0162349
783.655	0.0162244
783.733	0.0162570
783.811	0.0163409
783.889	0.0162827
783.967	0.0161589
784.045	0.0160986
784.123	0.0161662
784.201	0.0162356
784.280	0.0163184
784.358	0.0162210
784.436	0.0161050
784.514	0.0161942
784.592	0.0161760
784.670	0.0163657
784.748	0.0162947
784.826	0.0162749
784.905	0.0163561
784.983	0.0163652
785.061	0.0163538
785.139	0.0163343
785.217	0.0161647
785.295	0.0161507
785.373	0.0160506
785.451	0.0160680
785.530	0.0159270
785.608	0.0158665
785.686	0.0157484
785.764	0.0157128
785.842	0.0156539
785.920	0.0156682
785.998	0.0155233
786.076	0.0156790
786.155	0.0156960
786.233	0.0155974
786.311	0.0157035
786.389	0.0156305
786.467	0.0156958
786.545	0.0156657
786.623	0.0157874
786.701	0.0158033
786.780	0.0160010
786.858	0.0159602
786.936	0.0161238
787.014	0.0162177
787.092	0.0160662
787.170	0.0162257
787.248	0.0161932
787.326	0.0161745
787.405	0.0161916
787.483	0.0163278
787.561	0.0162103
787.639	0.0161421
787.717	0.0161228
787.795	0.0160049
787.873	0.0159772
787.951	0.0158363
788.030	0.0158559
788.108	0.0158683
788.186	0.0157187
788.264	0.0158025
788.342	0.0158905
788.420	0.0158288
788.498	0.0157946
788.576	0.0159574
788.655	0.0159399
788.733	0.0160598
788.811	0.0160807
788.889	0.0162173
788.967	0.0162746
789.045	0.0162079
789.123	0.0163920
789.201	0.0164501
789.280	0.0166229
789.358	0.0166378
789.436	0.0167522
789.514	0.0165750
789.592	0.0167802
789.670	0.0168224
789.748	0.0168425
789.826	0.0168003
789.905	0.0167442
789.983	0.0167957
790.061	0.0166963
790.139	0.0167141
790.217	0.0166565
790.295	0.0167244
790.373	0.0163058
790.451	0.0164754
790.530	0.0164739
790.608	0.0164751
790.686	0.0163756
790.764	0.0163040
790.842	0.0162759
790.920	0.0163456
790.998	0.0160547
791.076	0.0160474
791.155	0.0160397
791.233	0.0161475
791.311	0.0161226
791.389	0.0161740
791.467	0.0160543
791.545	0.0161383
791.623	0.0162663
791.701	0.0162214
791.780	0.0161863
791.858	0.0161675
791.936	0.0161958
792.014	0.0162544
792.092	0.0162069
792.170	0.0162762
792.248	0.0162120
792.326	0.0162254
792.405	0.0161815
792.483	0.0162238
792.561	0.0162267
792.639	0.0161707
792.717	0.0162192
792.795	0.0162865
792.873	0.0163110
792.951	0.0164030
793.030	0.0164202
793.108	0.0163306
793.186	0.0163396
793.264	0.0164227
793.342	0.0163323
793.420	0.0161845
793.498	0.0162051
793.576	0.0161950
793.655	0.0160882
793.733	0.0160079
793.811	0.0160253
793.889	0.0159263
793.967	0.0157282
794.045	0.0157447
794.123	0.0156541
794.201	0.0155639
794.280	0.0156442
794.358	0.0156139
794.436	0.0154908
794.514	0.0155527
794.592	0.0156312
794.670	0.0155692
794.748	0.0155715
794.826	0.0154996
794.905	0.0155202
794.983	0.0156999
795.061	0.0157696
795.139	0.0157613
795.217	0.0159981
795.295	0.0158803
795.373	0.0159754
795.451	0.0160484
795.530	0.0161166
795.608	0.0161573
795.686	0.0161470
795.764	0.0162313
795.842	0.0161924
795.920	0.0160647
795.998	0.0162096
796.076	0.0162970
796.155	0.0162527
796.233	0.0161306
796.311	0.0161316
796.389	0.0159982
796.467	0.0160657
796.545	0.0162341
796.623	0.0161265
796.701	0.0160702
796.780	0.0161417
796.858	0.0162560
796.936	0.0162054
797.014	0.0161282
797.092	0.0162888
797.170	0.0165102
797.248	0.0164025
797.326	0.0163615
797.405	0.0165256
797.483	0.0165878
797.561	0.0166068
797.639	0.0166442
797.717	0.0167371
797.795	0.0167963
797.873	0.0169109
797.951	0.0167025
798.030	0.0167024
798.108	0.0169063
798.186	0.0167369
798.264	0.0167003
798.342	0.0167644
798.420	0.0167101
798.498	0.0166116
798.576	0.0165497
798.655	0.0166092
798.733	0.0164989
798.811	0.0165343
798.889	0.0163903
798.967	0.0163575
799.045	0.0164118
799.123	0.0161549
799.201	0.0162469
799.280	0.0162700
799.358	0.0160079
799.436	0.0161040
799.514	0.0160055
799.592	0.0161122
799.670	0.0160061
799.748	0.0160027
799.826	0.0160677
799.905	0.0160327
799.983	0.0159646
800.061	0.0161156
800.139	0.0160482
800.217	0.0160470
800.295	0.0158327
800.373	0.0160947
800.451	0.0161195
800.530	0.0160287
800.608	0.0160732
800.686	0.0162237
800.764	0.0162577
800.842	0.0161923
800.920	0.0162411
800.998	0.0163389
801.076	0.0164173
801.155	0.0165201
801.233	0.0165447
801.311	0.0165797
801.389	0.0165047
801.467	0.0165973
801.545	0.0166388
801.623	0.0165858
801.701	0.0164131
801.780	0.0164713
801.858	0.0164822
801.936	0.0164302
802.014	0.0161320
802.092	0.0160840
802.170	0.0159774
802.248	0.0159221
802.326	0.0158847
802.405	0.0158342
802.483	0.0157172
802.561	0.0155975
802.639	0.0156999
802.717	0.0154990
802.795	0.0154823
802.873	0.0154195
802.951	0.0154025
803.030	0.0155032
803.108	0.0156185
803.186	0.0156329
803.264	0.0154739
803.342	0.0157794
803.420	0.0157562
803.498	0.0157719
803.576	0.0158820
803.655	0.0159391
803.733	0.0159788
803.811	0.0160369
803.889	0.0161983
803.967	0.0162254
804.045	0.0163665
804.123	0.0163121
804.201	0.0164884
804.280	0.0163750
804.358	0.0163159
804.436	0.0163987
804.514	0.0165501
804.592	0.0162439
804.670	0.0162539
804.748	0.0163529
804.826	0.0165629
804.905	0.0164406
804.983	0.0163437
805.061	0.0164308
805.139	0.0166016
805.217	0.0165249
805.295	0.0165115
805.373	0.0166978
805.451	0.0167547
805.530	0.0168460
805.608	0.0167883
805.686	0.0168696
805.764	0.0169892
805.842	0.0169879
805.920	0.0170832
805.998	0.0170258
806.076	0.0170095
806.155	0.0169774
806.233	0.0169685
806.311	0.0169480
806.389	0.0168097
806.467	0.0167592
806.545	0.0168905
806.623	0.0166684
806.701	0.0165427
806.780	0.0165435
806.858	0.0163940
806.936	0.0163708
807.014	0.0162575
807.092	0.0160708
807.170	0.0161962
807.248	0.0159305
807.326	0.0158627
807.405	0.0159266
807.483	0.0158769
807.561	0.0157675
807.639	0.0157131
807.717	0.0156727
807.795	0.0157710
807.873	0.0155764
807.951	0.0155917
808.030	0.0155584
808.108	0.0155429
808.186	0.0155363
808.264	0.0157198
808.342	0.0157966
808.420	0.0155575
808.498	0.0157741
808.576	0.0158000
808.655	0.0158971
808.733	0.0160148
808.811	0.0162315
808.889	0.0162057
808.967	0.0161900
809.045	0.0162233
809.123	0.0162957
809.201	0.0163842
809.280	0.0165244
809.358	0.0166943
809.436	0.0167127
809.514	0.0165359
809.592	0.0169098
809.670	0.0168448
809.748	0.0166634
809.826	0.0167159
809.905	0.0165930
809.983	0.0165927
810.061	0.0163308
810.139	0.0164488
810.217	0.0164809
810.295	0.0162518
810.373	0.0159799
810.451	0.0161052
810.530	0.0160789
810.608	0.0158861
810.686	0.0156936
810.764	0.0156832
810.842	0.0157967
810.920	0.0154915
810.998	0.0154475
811.076	0.0154812
811.155	0.0155186
811.233	0.0154969
811.311	0.0154962
811.389	0.0156797
811.467	0.0155642
811.545	0.0158136
811.623	0.0159494
811.701	0.0158251
811.780	0.0159903
811.858	0.0161179
811.936	0.0160558
812.014	0.0163397
812.092	0.0164103
812.170	0.0164004
812.248	0.0164393
812.326	0.0164319
812.405	0.0164852
812.483	0.0163425
812.561	0.0163468
812.639	0.0162152
812.717	0.0163346
812.795	0.0164143
812.873	0.0162771
812.951	0.0163335
813.030	0.0162494
813.108	0.0161448
813.186	0.0161819
813.264	0.0161771
813.342	0.0162287
813.420	0.0162852
813.498	0.0161867
813.576	0.0162339
813.655	0.0164625
813.733	0.0165960
813.811	0.0164519
813.889	0.0164371
813.967	0.0166124
814.045	0.0165938
814.123	0.0166261
814.201	0.0166122
814.280	0.0165875
814.358	0.0166825
814.436	0.0165974
814.514	0.0163597
814.592	0.0165223
814.670	0.0165639
814.748	0.0164388
814.826	0.0162485
814.905	0.0161930
814.983	0.0161266
815.061	0.0160435
815.139	0.0159783
815.217	0.0158696
815.295	0.0159230
815.373	0.0159215
815.451	0.0157632
815.530	0.0156996
815.608	0.0157687
815.686	0.0157839
815.764	0.0159086
815.842	0.0158387
815.920	0.0157260
815.998	0.0158237
816.076	0.0158864
816.155	0.0159872
816.233	0.0158997
816.311	0.0157767
816.389	0.0160734
816.467	0.0160577
816.545	0.0161090
816.623	0.0160979
816.701	0.0162026
816.780	0.0161246
816.858	0.0160995
816.936	0.0163053
817.014	0.0162305
817.092	0.0161355
817.170	0.0162305
817.248	0.0164297
817.326	0.0163829
817.405	0.0164557
817.483	0.0164572
817.561	0.0164987
817.639	0.0165650
817.717	0.0165613
817.795	0.0164183
817.873	0.0164821
817.951	0.0164598
818.030	0.0165366
818.108	0.0163542
818.186	0.0161728
818.264	0.0162348
818.342	0.0161046
818.420	0.0159866
818.498	0.0158333
818.576	0.0156914
818.655	0.0155647
818.733	0.0155324
818.811	0.0155247
818.889	0.0153033
818.967	0.0152119
819.045	0.0152319
819.123	0.0150035
819.201	0.0153172
819.280	0.0152402
819.358	0.0152116
819.436	0.0152722
819.514	0.0154192
819.592	0.0155329
819.670	0.0154474
819.748	0.0156596
819.826	0.0159836
819.905	0.0159240
819.983	0.0161556
820.061	0.0161675
820.139	0.0163009
820.217	0.0163979
820.295	0.0164603
820.373	0.0166042
820.451	0.0166613
820.530	0.0166656
820.608	0.0166940
820.686	0.0166104
820.764	0.0165799
820.842	0.0165786
820.920	0.0166096
820.998	0.0168134
821.076	0.0166795
821.155	0.0165174
821.233	0.0166535
821.311	0.0167875
821.389	0.0164902
821.467	0.0165630
821.545	0.0166129
821.623	0.0166111
821.701	0.0167454
821.780	0.0166962
821.858	0.0168646
821.936	0.0167508
822.014	0.0167635
822.092	0.0168534
822.170	0.0168920
822.248	0.0169785
822.326	0.0168453
822.405	0.0168515
822.483	0.0167099
822.561	0.0168267
822.639	0.0165742
822.717	0.0166831
822.795	0.0165779
822.873	0.0164722
822.951	0.0164282
823.030	0.0161957
823.108	0.0163540
823.186	0.0161362
823.264	0.0160806
823.342	0.0160437
823.420	0.0159354
823.498	0.0158767
823.576	0.0158644
823.655	0.0159069
823.733	0.0158086
823.811	0.0158112
823.889	0.0158935
823.967	0.0157674
824.045	0.0159087
824.123	0.0158675
824.201	0.0157958
824.280	0.0157649
824.358	0.0159631
824.436	0.0158920
824.514	0.0158779
824.592	0.0158753
824.670	0.0160648
824.748	0.0161153
824.826	0.0160777
824.905	0.0161599
824.983	0.0162643
825.061	0.0163476
825.139	0.0161923
825.217	0.0164297
825.295	0.0164070
825.373	0.0164129
825.451	0.0166611
825.530	0.0165858
825.608	0.0165184
825.686	0.0165710
825.764	0.0167165
825.842	0.0167547
825.920	0.0167582
825.998	0.0165382
826.076	0.0165717
826.155	0.0165842
826.233	0.0164494
826.311	0.0165137
826.389	0.0164252
826.467	0.0161890
826.545	0.0161752
826.623	0.0160536
826.701	0.0159031
826.780	0.0158277
826.858	0.0157889
826.936	0.0156308
827.014	0.0155759
827.092	0.0153315
827.170	0.0154600
827.248	0.0155136
827.326	0.0156120
827.405	0.0156495
827.483	0.0155853
827.561	0.0155302
827.639	0.0155657
827.717	0.0156701
827.795	0.0157249
827.873	0.0159089
827.951	0.0159848
828.030	0.0161169
828.108	0.0162274
828.186	0.0160938
828.264	0.0164065
828.342	0.0163520
828.420	0.0164963
828.498	0.0165566
828.576	0.0164357
828.655	0.0165306
828.733	0.0166865
828.811	0.0165984
828.889	0.0166885
828.967	0.0165526
829.045	0.0165990
829.123	0.0165956
829.201	0.0164776
829.280	0.0165058
829.358	0.0164307
829.436	0.0164368
829.514	0.0163825
829.592	0.0165368
829.670	0.0164581
829.748	0.0162558
829.826	0.0165286
829.905	0.0166824
829.983	0.0165389
830.061	0.0164996
830.139	0.0166048
830.217	0.0165261
830.295	0.0165576
830.373	0.0163638
830.451	0.0165048
830.530	0.0166273
830.608	0.0164952
830.686	0.0164269
830.764	0.0163570
830.842	0.0163404
830.920	0.0161747
830.998	0.0160420
831.076	0.0161173
831.155	0.0160879
831.233	0.0160473
831.311	0.0159216
831.389	0.0158846
831.467	0.0157578
831.545	0.0156784
831.623	0.0158588
831.701	0.0156637
831.780	0.0157534
831.858	0.0158530
831.936	0.0158102
832.014	0.0158925
832.092	0.0159801
832.170	0.0159036
832.248	0.0160349
832.326	0.0159882
832.405	0.0159453
832.483	0.0161317
832.561	0.0160570
832.639	0.0160083
832.717	0.0160883
832.795	0.0160802
832.873	0.0160419
832.951	0.0159970
833.030	0.0161548
833.108	0.0162030
833.186	0.0161061
833.264	0.0161803
833.342	0.0161867
833.420	0.0162753
833.498	0.0162511
833.576	0.0162489
833.655	0.0164995
833.733	0.0164079
833.811	0.0164279
833.889	0.0164354
833.967	0.0164378
834.045	0.0164123
834.123	0.0164819
834.201	0.0164895
834.280	0.0163628
834.358	0.0162290
834.436	0.0162306
834.514	0.0161566
834.592	0.0161932
834.670	0.0161036
834.748	0.0160703
834.826	0.0159270
834.905	0.0157946
834.983	0.0157766
835.061	0.0157983
835.139	0.0156937
835.217	0.0155679
835.295	0.0155602
835.373	0.0155737
835.451	0.0155215
835.530	0.0155518
835.608	0.0157086
835.686	0.0157072
835.764	0.0158446
835.842	0.0158461
835.920	0.0157824
835.998	0.0160167
836.076	0.0161668
836.155	0.0161954
836.233	0.0161840
836.311	0.0162531
836.389	0.0164950
836.467	0.0165472
836.545	0.0166092
836.623	0.0166035
836.701	0.0167052
836.780	0.0166441
836.858	0.0166228
836.936	0.0167123
837.014	0.0168279
837.092	0.0166357
837.170	0.0166762
837.248	0.0168428
837.326	0.0165930
837.405	0.0165070
837.483	0.0164331
837.561	0.0165824
837.639	0.0165612
837.717	0.0165287
837.795	0.0165469
837.873	0.0164662
837.951	0.0164393
838.030	0.0163510
838.108	0.0163588
838.186	0.0164320
838.264	0.0163709
838.342	0.0162549
838.420	0.0164053
838.498	0.0162669
838.576	0.0161396
838.655	0.0163482
838.733	0.0162787
838.811	0.0160027
838.889	0.0161316
838.967	0.0160815
839.045	0.0159423
839.123	0.0160202
839.201	0.0160387
839.280	0.0159378
839.358	0.0158194
839.436	0.0158064
839.514	0.0157089
839.592	0.0158284
839.670	0.0156561
839.748	0.0156763
839.826	0.0156908
839.905	0.0157241
839.983	0.0157579
840.061	0.0158466
840.139	0.0156960
840.217	0.0159442
840.295	0.0159129
840.373	0.0159260
840.451	0.0160366
840.530	0.0161904
840.608	0.0160485
840.686	0.0161452
840.764	0.0162008
840.842	0.0163367
840.920	0.0163700
840.998	0.0161961
841.076	0.0161710
841.155	0.0162214
841.233	0.0163358
841.311	0.0162818
841.389	0.0163786
841.467	0.0163505
841.545	0.0163678
841.623	0.0164235
841.701	0.0164452
841.780	0.0165457
841.858	0.0166261
841.936	0.0165784
842.014	0.0166473
842.092	0.0165816
842.170	0.0167204
842.248	0.0166635
842.326	0.0164924
842.405	0.0164500
842.483	0.0163644
842.561	0.0163479
842.639	0.0163889
842.717	0.0162610
842.795	0.0163552
842.873	0.0162269
842.951	0.0160619
843.030	0.0159626
843.108	0.0159337
843.186	0.0159183
843.264	0.0158904
843.342	0.0159399
843.420	0.0158555
843.498	0.0157558
843.576	0.0158149
843.655	0.0159614
843.733	0.0160298
843.811	0.0159907
843.889	0.0161081
843.967	0.0159568
844.045	0.0158904
844.123	0.0160005
844.201	0.0161188
844.280	0.0161501
844.358	0.0163512
844.436	0.0160999
844.514	0.0162598
844.592	0.0162707
844.670	0.0164381
844.748	0.0162917
844.826	0.0162980
844.905	0.0163252
844.983	0.0163400
845.061	0.0162698
845.139	0.0164193
845.217	0.0164886
845.295	0.0164043
845.373	0.0163263
845.451	0.0164588
845.530	0.0163857
845.608	0.0165734
845.686	0.0164999
845.764	0.0164381
845.842	0.0164306
845.920	0.0165878
845.998	0.0165296
846.076	0.0164412
846.155	0.0165028
846.233	0.0165321
846.311	0.0164960
846.389	0.0164903
846.467	0.0163485
846.545	0.0163873
846.623	0.0163783
846.701	0.0163285
846.780	0.0161938
846.858	0.0160954
846.936	0.0160924
847.014	0.0161434
847.092	0.0160333
847.170	0.0160495
847.248	0.0159656
847.326	0.0160295
847.405	0.0158979
847.483	0.0159402
847.561	0.0159637
847.639	0.0160213
847.717	0.0159691
847.795	0.0161353
847.873	0.0161344
847.951	0.0160712
848.030	0.0159675
848.108	0.0160651
848.186	0.0161916
848.264	0.0162585
848.342	0.0162512
848.420	0.0163071
848.498	0.0163462
848.576	0.0163366
848.655	0.0163910
848.733	0.0164579
848.811	0.0164355
848.889	0.0164281
848.967	0.0164356
849.045	0.0164539
849.123	0.0164930
849.201	0.0162863
849.280	0.0163466
849.358	0.0164156
849.436	0.0161774
849.514	0.0163545
849.592	0.0163770
849.670	0.0163136
849.748	0.0161834
849.826	0.0162450
849.905	0.0162003
849.983	0.0162585
850.061	0.0161285
850.139	0.0162474
850.217	0.0163897
850.295	0.0163600
850.373	0.0161897
850.451	0.0162155
850.530	0.0162555
850.608	0.0163603
850.686	0.0160460
850.764	0.0162945
850.842	0.0162383
850.920	0.0160648
850.998	0.0159936
851.076	0.0161469
851.155	0.0162286
851.233	0.0159277
851.311	0.0158698
851.389	0.0159613
851.467	0.0158879
851.545	0.0158778
851.623	0.0158054
851.701	0.0159002
851.780	0.0158645
851.858	0.0158080
851.936	0.0158685
852.014	0.0159378
852.092	0.0159171
852.170	0.0160223
852.248	0.0159467
852.326	0.0160699
852.405	0.0161269
852.483	0.0160241
852.561	0.0162022
852.639	0.0162174
852.717	0.0162761
852.795	0.0161253
852.873	0.0162938
852.951	0.0163734
853.030	0.0163983
853.108	0.0165603
853.186	0.0163953
853.264	0.0164066
853.342	0.0164455
853.420	0.0164465
853.498	0.0163920
853.576	0.0165012
853.655	0.0164078
853.733	0.0166607
853.811	0.0165797
853.889	0.0165798
853.967	0.0164926
854.045	0.0166180
854.123	0.0165049
854.201	0.0163304
854.280	0.0163303
854.358	0.0163615
854.436	0.0162003
854.514	0.0162321
854.592	0.0161887
854.670	0.0161700
854.748	0.0161000
854.826	0.0159296
854.905	0.0161311
854.983	0.0162015
855.061	0.0159502
855.139	0.0159873
855.217	0.0159245
855.295	0.0158279
855.373	0.0158574
855.451	0.0159818
855.530	0.0159285
855.608	0.0159464
855.686	0.0159626
855.764	0.0159049
855.842	0.0160165
855.920	0.0159833
855.998	0.0159324
856.076	0.0160621
856.155	0.0159963
856.233	0.0161452
856.311	0.0162383
856.389	0.0160614
856.467	0.0161838
856.545	0.0162038
856.623	0.0161070
856.701	0.0160735
856.780	0.0160970
856.858	0.0162232
856.936	0.0162553
857.014	0.0162672
857.092	0.0162379
857.170	0.0163723
857.248	0.0164553
857.326	0.0165063
857.405	0.0165261
857.483	0.0162549
857.561	0.0162528
857.639	0.0162319
857.717	0.0163356
857.795	0.0161922
857.873	0.0161447
857.951	0.0161741
858.030	0.0162085
858.108	0.0162352
858.186	0.0161952
858.264	0.0162253
858.342	0.0161958
858.420	0.0161899
858.498	0.0161475
858.576	0.0161204
858.655	0.0159698
858.733	0.0161168
858.811	0.0160207
858.889	0.0159872
858.967	0.0160020
859.045	0.0160124
859.123	0.0159358
859.201	0.0159847
859.280	0.0158662
859.358	0.0159097
859.436	0.0157004
859.514	0.0159113
859.592	0.0159315
859.670	0.0158391
859.748	0.0158154
859.826	0.0157050
859.905	0.0157433
859.983	0.0158994
860.061	0.0158808
860.139	0.0158519
860.217	0.0158652
860.295	0.0157496
860.373	0.0157937
860.451	0.0160052
860.530	0.0161380
860.608	0.0159966
860.686	0.0158392
860.764	0.0158930
860.842	0.0159591
860.920	0.0159412
860.998	0.0159581
861.076	0.0161053
861.155	0.0161596
861.233	0.0161114
861.311	0.0162253
861.389	0.0162315
861.467	0.0161110
861.545	0.0163212
861.623	0.0163213
861.701	0.0163140
861.780	0.0163757
861.858	0.0163484
861.936	0.0164133
862.014	0.0164929
862.092	0.0165314
862.170	0.0163654
862.248	0.0164491
862.326	0.0164646
862.405	0.0163897
862.483	0.0163728
862.561	0.0163177
862.639	0.0163958
862.717	0.0163142
862.795	0.0162754
862.873	0.0162340
862.951	0.0162336
863.030	0.0163087
863.108	0.0161588
863.186	0.0161210
863.264	0.0161343
863.342	0.0161302
863.420	0.0160905
863.498	0.0160191
863.576	0.0161374
863.655	0.0162195
863.733	0.0160954
863.811	0.0161101
863.889	0.0162447
863.967	0.0162637
864.045	0.0161765
864.123	0.0161501
864.201	0.0162316
864.280	0.0162361
864.358	0.0160712
864.436	0.0162429
864.514	0.0161506
864.592	0.0162619
864.670	0.0162019
864.748	0.0161208
864.826	0.0161939
864.905	0.0162683
864.983	0.0162450
865.061	0.0162538
865.139	0.0162166
865.217	0.0163092
865.295	0.0163262
865.373	0.0163132
865.451	0.0162988
865.530	0.0163788
865.608	0.0163518
865.686	0.0163864
865.764	0.0162849
865.842	0.0164088
865.920	0.0164273
865.998	0.0162365
866.076	0.0161529
866.155	0.0162740
866.233	0.0162901
866.311	0.0162406
866.389	0.0160680
866.467	0.0161697
866.545	0.0160011
866.623	0.0159874
866.701	0.0158815
866.780	0.0158434
866.858	0.0160876
866.936	0.0160903
867.014	0.0160540
867.092	0.0160781
867.170	0.0161308
867.248	0.0160874
867.326	0.0159947
867.405	0.0161587
867.483	0.0162631
867.561	0.0162122
867.639	0.0161275
867.717	0.0160571
867.795	0.0161938
867.873	0.0161382
867.951	0.0161924
868.030	0.0161540
868.108	0.0162836
868.186	0.0160822
868.264	0.0161255
868.342	0.0162061
868.420	0.0164164
868.498	0.0162951
868.576	0.0160609
868.655	0.0163821
868.733	0.0162078
868.811	0.0161485
868.889	0.0163419
868.967	0.0162724
869.045	0.0163679
869.123	0.0164982
869.201	0.0164911
869.280	0.0162601
869.358	0.0164277
869.436	0.0164793
869.514	0.0164662
869.592	0.0165588
869.670	0.0166074
869.748	0.0165424
869.826	0.0165638
869.905	0.0167104
869.983	0.0166462
870.061	0.0164546
870.139	0.0166371
870.217	0.0166370
870.295	0.0164464
870.373	0.0165459
870.451	0.0165786
870.530	0.0164814
870.608	0.0164486
870.686	0.0164845
870.764	0.0165372
870.842	0.0164248
870.920	0.0162807
870.998	0.0162628
871.076	0.0162381
871.155	0.0162809
871.233	0.0162174
871.311	0.0162688
871.389	0.0161850
871.467	0.0161129
871.545	0.0159967
871.623	0.0160693
871.701	0.0160862
871.780	0.0161301
871.858	0.0161446
871.936	0.0160677
872.014	0.0162036
872.092	0.0160637
872.170	0.0160786
872.248	0.0161513
872.326	0.0160957
872.405	0.0161023
872.483	0.0161247
872.561	0.0160776
872.639	0.0161183
872.717	0.0162404
872.795	0.0163667
872.873	0.0161934
872.951	0.0161164
873.030	0.0162792
873.108	0.0162609
873.186	0.0163063
873.264	0.0163496
873.342	0.0162653
873.420	0.0162836
873.498	0.0162598
873.576	0.0162783
873.655	0.0163029
873.733	0.0162695
873.811	0.0163720
873.889	0.0164063
873.967	0.0163260
874.045	0.0162318
874.123	0.0162791
874.201	0.0162859
874.280	0.0162202
874.358	0.0160806
874.436	0.0160382
874.514	0.0159377
874.592	0.0158439
874.670	0.0158114
874.748	0.0158366
874.826	0.0158022
874.905	0.0157043
874.983	0.0157162
875.061	0.0157462
875.139	0.0158232
875.217	0.0156786
875.295	0.0157330
875.373	0.0158949
875.451	0.0158908
875.530	0.0159119
875.608	0.0158854
875.686	0.0159689
875.764	0.0161221
875.842	0.0160384
875.920	0.0161280
875.998	0.0162630
876.076	0.0161033
876.155	0.0160489
876.233	0.0161178
876.311	0.0161769
876.389	0.0161427
876.467	0.0160600
876.545	0.0161995
876.623	0.0162804
876.701	0.0159903
876.780	0.0161419
876.858	0.0162709
876.936	0.0160957
877.014	0.0161944
877.092	0.0162363
877.170	0.0162516
877.248	0.0163185
877.326	0.0162949
877.405	0.0163423
877.483	0.0163428
877.561	0.0162755
877.639	0.0163787
877.717	0.0162955
877.795	0.0163365
877.873	0.0162180
877.951	0.0162199
878.030	0.0163558
878.108	0.0161868
878.186	0.0163438
878.264	0.0162962
878.342	0.0162882
878.420	0.0160992
878.498	0.0162936
878.576	0.0163609
878.655	0.0162173
878.733	0.0161040
878.811	0.0162209
878.889	0.0162460
878.967	0.0161333
879.045	0.0160913
879.123	0.0161676
879.201	0.0160850
879.280	0.0161656
879.358	0.0162472
879.436	0.0161485
879.514	0.0159683
879.592	0.0161880
879.670	0.0161369
879.748	0.0159672
879.826	0.0160716
879.905	0.0161513
879.983	0.0161052
880.061	0.0161704
880.139	0.0161017
880.217	0.0160034
880.295	0.0161015
880.373	0.0161047
880.451	0.0162074
880.530	0.0162558
880.608	0.0161737
880.686	0.0162486
880.764	0.0161926
880.842	0.0162670
880.920	0.0162463
880.998	0.0161978
881.076	0.0161356
881.155	0.0162483
881.233	0.0161997
881.311	0.0162984
881.389	0.0162022
881.467	0.0162459
881.545	0.0161353
881.623	0.0161598
881.701	0.0162815
881.780	0.0161989
881.858	0.0161037
881.936	0.0161845
882.014	0.0160783
882.092	0.0161916
882.170	0.0161896
882.248	0.0160684
882.326	0.0160094
882.405	0.0160871
882.483	0.0160442
882.561	0.0159844
882.639	0.0160200
882.717	0.0159171
882.795	0.0160269
882.873	0.0160661
882.951	0.0157642
883.030	0.0158977
883.108	0.0159777
883.186	0.0159396
883.264	0.0158680
883.342	0.0159599
883.420	0.0158682
883.498	0.0159887
883.576	0.0159126
883.655	0.0159762
883.733	0.0160451
883.811	0.0160935
883.889	0.0160443
883.967	0.0159738
884.045	0.0161556
884.123	0.0162229
884.201	0.0161261
884.280	0.0162303
884.358	0.0161909
884.436	0.0162790
884.514	0.0162978
884.592	0.0162564
884.670	0.0162218
884.748	0.0161977
884.826	0.0162502
884.905	0.0161449
884.983	0.0162808
885.061	0.0163306
885.139	0.0163174
885.217	0.0162712
885.295	0.0162130
885.373	0.0162051
885.451	0.0162981
885.530	0.0164213
885.608	0.0163322
885.686	0.0162926
885.764	0.0164280
885.842	0.0164170
885.920	0.0163704
885.998	0.0164467
886.076	0.0162989
886.155	0.0163772
886.233	0.0163394
886.311	0.0163214
886.389	0.0163828
886.467	0.0163595
886.545	0.0162938
886.623	0.0163190
886.701	0.0162849
886.780	0.0162081
886.858	0.0162959
886.936	0.0163525
887.014	0.0161836
887.092	0.0162548
887.170	0.0161653
887.248	0.0160474
887.326	0.0161271
887.405	0.0162411
887.483	0.0161839
887.561	0.0160569
887.639	0.0160563
887.717	0.0160493
887.795	0.0160673
887.873	0.0160296
887.951	0.0161338
888.030	0.0159538
888.108	0.0159136
888.186	0.0160135
888.264	0.0158999
888.342	0.0158722
888.420	0.0159922
888.498	0.0159457
888.576	0.0160338
888.655	0.0160054
888.733	0.0161584
888.811	0.0161512
888.889	0.0161826
888.967	0.0161811
889.045	0.0162762
889.123	0.0162871
889.201	0.0163460
889.280	0.0164285
889.358	0.0163801
889.436	0.0165138
889.514	0.0163561
889.592	0.0163596
889.670	0.0164341
889.748	0.0164560
889.826	0.0165237
889.905	0.0163811
889.983	0.0163907
890.061	0.0164014
890.139	0.0164309
890.217	0.0163611
890.295	0.0163638
890.373	0.0162048
890.451	0.0162048
890.530	0.0163013
890.608	0.0160280
890.686	0.0161761
890.764	0.0161292
890.842	0.0161443
890.920	0.0161234
890.998	0.0161256
891.076	0.0160139
891.155	0.0159726
891.233	0.0160400
891.311	0.0160566
891.389	0.0159619
891.467	0.0159035
891.545	0.0159676
891.623	0.0160991
891.701	0.0161712
891.780	0.0161187
891.858	0.0161533
891.936	0.0161275
892.014	0.0160726
892.092	0.0161786
892.170	0.0163299
892.248	0.0160391
892.326	0.0162566
892.405	0.0162035
892.483	0.0163298
892.561	0.0163951
892.639	0.0163605
892.717	0.0162827
892.795	0.0164505
892.873	0.0163403
892.951	0.0163812
893.030	0.0164603
893.108	0.0164576
893.186	0.0164197
893.264	0.0163505
893.342	0.0163293
893.420	0.0163311
893.498	0.0163338
893.576	0.0164629
893.655	0.0163690
893.733	0.0162908
893.811	0.0163770
893.889	0.0161990
893.967	0.0163166
894.045	0.0163764
894.123	0.0163616
894.201	0.0163390
894.280	0.0163994
894.358	0.0162611
894.436	0.0163189
894.514	0.0162793
894.592	0.0163125
894.670	0.0161799
894.748	0.0162533
894.826	0.0162631
894.905	0.0162138
894.983	0.0161115
895.061	0.0160272
895.139	0.0160999
895.217	0.0161887
895.295	0.0160278
895.373	0.0160378
895.451	0.0161422
895.530	0.0158334
895.608	0.0160975
895.686	0.0162093
895.764	0.0161195
895.842	0.0160177
895.920	0.0160840
895.998	0.0162036
896.076	0.0161203
896.155	0.0160803
896.233	0.0162180
896.311	0.0162919
896.389	0.0162202
896.467	0.0161304
896.545	0.0161428
896.623	0.0162138
896.701	0.0161369
896.780	0.0161843
896.858	0.0162903
896.936	0.0162701
897.014	0.0162494
897.092	0.0162631
897.170	0.0161510
897.248	0.0161308
897.326	0.0162655
897.405	0.0162631
897.483	0.0161929
897.561	0.0161543
897.639	0.0161578
897.717	0.0163380
897.795	0.0161549
897.873	0.0161391
897.951	0.0160938
898.030	0.0162358
898.108	0.0161620
898.186	0.0161358
898.264	0.0162007
898.342	0.0162737
898.420	0.0162490
898.498	0.0161623
898.576	0.0161975
898.655	0.0162536
898.733	0.0161157
898.811	0.0163011
898.889	0.0163036
898.967	0.0162426
899.045	0.0162274
899.123	0.0162281
899.201	0.0162904
899.280	0.0162247
899.358	0.0159964
899.436	0.0160606
899.514	0.0160661
899.592	0.0160175
899.670	0.0161421
899.748	0.0161435
899.826	0.0160775
899.905	0.0160760
899.983	0.0160114
900.061	0.0160393
900.139	0.0160595
900.217	0.0160700
900.295	0.0161875
900.373	0.0161674
900.451	0.0161018
900.530	0.0162715
900.608	0.0161486
900.686	0.0162257
900.764	0.0162775
900.842	0.0162222
900.920	0.0162531
900.998	0.0163074
901.076	0.0163010
901.155	0.0163118
901.233	0.0162697
901.311	0.0163681
901.389	0.0162537
901.467	0.0163277
901.545	0.0163285
901.623	0.0164429
901.701	0.0162517
901.780	0.0163895
901.858	0.0162830
901.936	0.0163168
902.014	0.0164017
902.092	0.0164429
902.170	0.0165114
902.248	0.0164353
902.326	0.0162739
902.405	0.0164513
902.483	0.0164186
902.561	0.0164162
902.639	0.0163595
902.717	0.0163680
902.795	0.0163780
902.873	0.0163185
902.951	0.0164058
903.030	0.0163678
903.108	0.0163719
903.186	0.0162240
903.264	0.0163290
903.342	0.0163010
903.420	0.0162547
903.498	0.0161520
903.576	0.0161989
903.655	0.0162286
903.733	0.0163529
903.811	0.0162373
903.889	0.0161564
903.967	0.0162547
904.045	0.0163046
904.123	0.0161795
904.201	0.0161269
904.280	0.0163652
904.358	0.0162177
904.436	0.0161835
904.514	0.0161397
904.592	0.0162195
904.670	0.0161845
904.748	0.0161352
904.826	0.0161303
904.905	0.0160136
904.983	0.0161635
905.061	0.0160788
905.139	0.0160892
905.217	0.0161029
905.295	0.0161359
905.373	0.0161514
905.451	0.0162100
905.530	0.0162828
905.608	0.0163163
905.686	0.0162314
905.764	0.0163216
905.842	0.0163725
905.920	0.0162748
905.998	0.0162551
906.076	0.0163607
906.155	0.0163254
906.233	0.0163297
906.311	0.0163092
906.389	0.0162976
906.467	0.0161066
906.545	0.0162273
906.623	0.0162412
906.701	0.0162043
906.780	0.0161409
906.858	0.0160957
906.936	0.0160485
907.014	0.0160407
907.092	0.0160666
907.170	0.0160583
907.248	0.0159560
907.326	0.0159164
907.405	0.0161876
907.483	0.0161403
907.561	0.0160709
907.639	0.0160999
907.717	0.0161604
907.795	0.0161645
907.873	0.0161176
907.951	0.0161068
908.030	0.0162080
908.108	0.0160859
908.186	0.0162566
908.264	0.0161716
908.342	0.0161878
908.420	0.0162112
908.498	0.0162859
908.576	0.0162237
908.655	0.0161739
908.733	0.0161333
908.811	0.0161588
908.889	0.0161346
908.967	0.0161423
909.045	0.0161393
909.123	0.0162206
909.201	0.0162611
909.280	0.0161742
909.358	0.0161672
909.436	0.0163411
909.514	0.0162371
909.592	0.0162052
909.670	0.0161864
909.748	0.0162894
909.826	0.0163159
909.905	0.0161988
909.983	0.0161586
910.061	0.0162854
910.139	0.0161687
910.217	0.0162949
910.295	0.0163725
910.373	0.0163488
910.451	0.0163635
910.530	0.0163404
910.608	0.0162526
910.686	0.0163487
910.764	0.0164542
910.842	0.0161990
910.920	0.0162506
910.998	0.0162825
911.076	0.0163254
911.155	0.0162272
911.233	0.0162268
911.311	0.0163218
911.389	0.0162315
911.467	0.0161857
911.545	0.0160783
911.623	0.0161404
911.701	0.0161247
911.780	0.0160233
911.858	0.0159851
911.936	0.0160247
912.014	0.0159300
912.092	0.0158588
912.170	0.0159383
912.248	0.0159840
912.326	0.0159155
912.405	0.0158637
912.483	0.0160651
912.561	0.0159445
912.639	0.0159277
912.717	0.0160583
912.795	0.0160502
912.873	0.0158643
912.951	0.0159711
913.030	0.0160435
913.108	0.0160408
913.186	0.0162251
913.264	0.0161183
913.342	0.0161654
913.420	0.0161015
913.498	0.0163198
913.576	0.0160935
913.655	0.0161705
913.733	0.0163570
913.811	0.0163730
913.889	0.0162638
913.967	0.0162676
914.045	0.0161581
914.123	0.0162287
914.201	0.0161765
914.280	0.0162418
914.358	0.0161942
914.436	0.0162426
914.514	0.0161704
914.592	0.0162105
914.670	0.0162421
914.748	0.0161541
914.826	0.0162637
914.905	0.0161369
914.983	0.0162162
915.061	0.0160976
915.139	0.0161333
915.217	0.0163161
915.295	0.0161611
915.373	0.0160699
915.451	0.0161488
915.530	0.0160599
915.608	0.0161000
915.686	0.0162059
915.764	0.0161243
915.842	0.0161829
915.920	0.0162232
915.998	0.0161005
916.076	0.0161390
916.155	0.0161996
916.233	0.0160601
916.311	0.0160513
916.389	0.0161494
916.467	0.0160663
916.545	0.0161002
916.623	0.0160601
916.701	0.0160497
916.780	0.0161562
916.858	0.0161404
916.936	0.0160550
917.014	0.0159735
917.092	0.0161233
917.170	0.0159965
917.248	0.0160863
917.326	0.0161156
917.405	0.0159248
917.483	0.0159978
917.561	0.0161035
917.639	0.0160432
917.717	0.0160912
917.795	0.0161629
917.873	0.0161565
917.951	0.0160660
918.030	0.0161311
918.108	0.0163771
918.186	0.0162596
918.264	0.0162321
918.342	0.0163708
918.420	0.0163433
918.498	0.0164312
918.576	0.0163417
918.655	0.0163224
918.733	0.0162393
918.811	0.0162392
918.889	0.0163174
918.967	0.0163232
919.045	0.0162104
919.123	0.0161797
919.201	0.0162151
919.280	0.0161671
919.358	0.0161601
919.436	0.0161699
919.514	0.0160387
919.592	0.0160648
919.670	0.0161156
919.748	0.0161150
919.826	0.0161044
919.905	0.0161873
919.983	0.0161117
920.061	0.0160477
920.139	0.0160938
920.217	0.0162008
920.295	0.0160433
920.373	0.0160487
920.451	0.0160655
920.530	0.0160426
920.608	0.0161522
920.686	0.0160544
920.764	0.0161518
920.842	0.0161491
920.920	0.0161822
920.998	0.0161567
921.076	0.0161362
921.155	0.0161471
921.233	0.0161435
921.311	0.0162603
921.389	0.0162303
921.467	0.0162320
921.545	0.0163250
921.623	0.0163583
921.701	0.0162590
921.780	0.0163226
921.858	0.0162059
921.936	0.0163216
922.014	0.0162440
922.092	0.0163499
922.170	0.0164092
922.248	0.0163387
922.326	0.0163654
922.405	0.0163580
922.483	0.0163758
922.561	0.0164173
922.639	0.0163493
922.717	0.0164378
922.795	0.0164582
922.873	0.0163657
922.951	0.0163639
923.030	0.0163857
923.108	0.0162330
923.186	0.0161470
923.264	0.0162973
923.342	0.0163004
923.420	0.0162418
923.498	0.0163226
923.576	0.0162872
923.655	0.0162346
923.733	0.0160830
923.811	0.0161807
923.889	0.0163277
923.967	0.0162817
924.045	0.0161829
924.123	0.0162705
924.201	0.0161379
924.280	0.0163538
924.358	0.0161681
924.436	0.0161030
924.514	0.0161742
924.592	0.0161932
924.670	0.0162385
924.748	0.0162353
924.826	0.0162431
924.905	0.0161897
924.983	0.0161178
925.061	0.0161414
925.139	0.0161933
925.217	0.0161784
925.295	0.0161485
925.373	0.0162303
925.451	0.0161401
925.530	0.0161738
925.608	0.0162270
925.686	0.0161729
925.764	0.0161957
925.842	0.0162867
925.920	0.0163274
925.998	0.0162409
926.076	0.0162445
926.155	0.0163203
926.233	0.0165048
926.311	0.0164194
926.389	0.0164269
926.467	0.0164377
926.545	0.0164296
926.623	0.0165244
926.701	0.0164938
926.780	0.0164426
926.858	0.0164968
926.936	0.0163430
927.014	0.0163149
927.092	0.0163849
927.170	0.0161522
927.248	0.0163151
927.326	0.0163473
927.405	0.0162104
927.483	0.0160706
927.561	0.0161632
927.639	0.0160501
927.717	0.0161125
927.795	0.0161040
927.873	0.0161131
927.951	0.0160703
928.030	0.0159925
928.108	0.0160262
928.186	0.0161643
928.264	0.0161978
928.342	0.0162491
928.420	0.0160748
928.498	0.0160960
928.576	0.0160577
928.655	0.0162007
928.733	0.0161492
928.811	0.0161555
928.889	0.0161874
928.967	0.0163042
929.045	0.0161462
929.123	0.0161881
929.201	0.0162771
929.280	0.0163098
929.358	0.0161837
929.436	0.0163126
929.514	0.0162559
929.592	0.0162613
929.670	0.0162600
929.748	0.0164016
929.826	0.0163289
929.905	0.0163322
929.983	0.0162931
930.061	0.0163260
930.139	0.0162903
930.217	0.0162775
930.295	0.0162303
930.373	0.0162694
930.451	0.0161662
930.530	0.0162042
930.608	0.0162730
930.686	0.0162284
930.764	0.0163078
930.842	0.0161986
930.920	0.0160135
930.998	0.0162631
931.076	0.0162283
931.155	0.0160812
931.233	0.0162033
931.311	0.0161203
931.389	0.0161507
931.467	0.0161111
931.545	0.0161147
931.623	0.0160680
931.701	0.0160451
931.780	0.0161169
931.858	0.0161513
931.936	0.0162225
932.014	0.0159906
932.092	0.0160845
932.170	0.0161137
932.248	0.0161733
932.326	0.0161437
932.405	0.0161234
932.483	0.0161032
932.561	0.0161741
932.639	0.0160432
932.717	0.0160255
932.795	0.0162675
932.873	0.0161710
932.951	0.0161626
933.030	0.0162507
933.108	0.0161097
933.186	0.0162415
933.264	0.0162283
933.342	0.0161815
933.420	0.0162463
933.498	0.0163400
933.576	0.0164366
933.655	0.0163053
933.733	0.0163476
933.811	0.0164982
933.889	0.0162305
933.967	0.0161622
934.045	0.0162808
934.123	0.0164165
934.201	0.0162134
934.280	0.0159476
934.358	0.0162875
934.436	0.0161576
934.514	0.0161929
934.592	0.0161355
934.670	0.0161819
934.748	0.0161271
934.826	0.0159968
934.905	0.0160060
934.983	0.0161668
935.061	0.0161047
935.139	0.0160598
935.217	0.0160307
935.295	0.0159121
935.373	0.0160422
935.451	0.0159320
935.530	0.0159152
935.608	0.0159999
935.686	0.0161176
935.764	0.0159623
935.842	0.0158854
935.920	0.0160445
935.998	0.0161270
936.076	0.0161633
936.155	0.0161237
936.233	0.0161473
936.311	0.0161958
936.389	0.0161324
936.467	0.0161061
936.545	0.0161715
936.623	0.0160422
936.701	0.0160136
936.780	0.0161589
936.858	0.0160213
936.936	0.0159659
937.014	0.0160508
937.092	0.0160619
937.170	0.0160334
937.248	0.0161014
937.326	0.0161194
937.405	0.0160787
937.483	0.0161259
937.561	0.0160725
937.639	0.0160297
937.717	0.0161421
937.795	0.0161932
937.873	0.0162403
937.951	0.0161009
938.030	0.0161462
938.108	0.0161188
938.186	0.0161139
938.264	0.0161333
938.342	0.0161720
938.420	0.0161411
938.498	0.0161514
938.576	0.0161881
938.655	0.0161745
938.733	0.0161518
938.811	0.0162283
938.889	0.0161469
938.967	0.0161744
939.045	0.0162698
939.123	0.0161002
939.201	0.0160652
939.280	0.0161478
939.358	0.0161633
939.436	0.0161477
939.514	0.0162408
939.592	0.0162579
939.670	0.0161358
939.748	0.0160954
939.826	0.0162425
939.905	0.0161771
939.983	0.0159810
940.061	0.0162165
940.139	0.0161055
940.217	0.0159896
940.295	0.0160887
940.373	0.0160778
940.451	0.0160007
940.530	0.0160221
940.608	0.0160065
940.686	0.0160336
940.764	0.0159118
940.842	0.0158076
940.920	0.0158941
940.998	0.0159188
941.076	0.0159343
941.155	0.0159023
941.233	0.0159633
941.311	0.0160236
941.389	0.0160322
941.467	0.0159097
941.545	0.0158744
941.623	0.0159398
941.701	0.0160593
941.780	0.0161515
941.858	0.0159883
941.936	0.0160650
942.014	0.0160045
942.092	0.0160541
942.170	0.0160180
942.248	0.0160608
942.326	0.0160238
942.405	0.0159988
942.483	0.0161738
942.561	0.0159856
942.639	0.0159056
942.717	0.0160331
942.795	0.0159762
942.873	0.0160346
942.951	0.0161459
943.030	0.0160366
943.108	0.0159433
943.186	0.0159625
943.264	0.0161834
943.342	0.0161925
943.420	0.0161059
943.498	0.0161899
943.576	0.0162679
943.655	0.0162107
943.733	0.0162716
943.811	0.0162032
943.889	0.0161337
943.967	0.0161292
944.045	0.0162225
944.123	0.0161885
944.201	0.0162897
944.280	0.0161409
944.358	0.0162630
944.436	0.0162005
944.514	0.0160760
944.592	0.0160011
944.670	0.0160899
944.748	0.0160641
944.826	0.0161956
944.905	0.0161916
944.983	0.0160308
945.061	0.0161502
945.139	0.0160274
945.217	0.0161700
945.295	0.0160547
945.373	0.0159338
945.451	0.0161756
945.530	0.0162310
945.608	0.0161066
945.686	0.0161223
945.764	0.0162402
945.842	0.0163013
945.920	0.0162486
945.998	0.0161297
946.076	0.0162273
946.155	0.0163339
946.233	0.0161954
946.311	0.0162248
946.389	0.0162132
946.467	0.0162578
946.545	0.0161936
946.623	0.0162867
946.701	0.0163123
946.780	0.0162704
946.858	0.0161458
946.936	0.0162534
947.014	0.0163749
947.092	0.0163716
947.170	0.0162671
947.248	0.0162614
947.326	0.0163095
947.405	0.0163151
947.483	0.0163571
947.561	0.0162384
947.639	0.0162820
947.717	0.0161337
947.795	0.0161629
947.873	0.0161461
947.951	0.0162323
948.030	0.0162452
948.108	0.0162760
948.186	0.0161761
948.264	0.0162424
948.342	0.0162706
948.420	0.0160349
948.498	0.0162370
948.576	0.0162695
948.655	0.0161707
948.733	0.0161861
948.811	0.0161479
948.889	0.0160885
948.967	0.0160884
949.045	0.0160716
949.123	0.0161543
949.201	0.0161815
949.280	0.0162742
949.358	0.0160976
949.436	0.0161144
949.514	0.0162028
949.592	0.0162360
949.670	0.0162234
949.748	0.0161576
949.826	0.0160457
949.905	0.0160199
949.983	0.0161883
950.061	0.0161858
950.139	0.0161597
950.217	0.0162006
950.295	0.0162362
950.373	0.0161157
950.451	0.0161314
950.530	0.0162637
950.608	0.0161863
950.686	0.0162730
950.764	0.0162621
950.842	0.0162645
950.920	0.0162390
950.998	0.0163155
951.076	0.0164279
951.155	0.0161334
951.233	0.0163049
951.311	0.0163693
951.389	0.0163633
951.467	0.0163939
951.545	0.0163737
951.623	0.0164117
951.701	0.0163228
951.780	0.0164822
951.858	0.0163824
951.936	0.0163092
952.014	0.0162902
952.092	0.0162405
952.170	0.0163326
952.248	0.0163767
952.326	0.0162428
952.405	0.0162517
952.483	0.0163728
952.561	0.0163557
952.639	0.0161401
952.717	0.0162644
952.795	0.0162839
952.873	0.0162432
952.951	0.0162007
953.030	0.0162450
953.108	0.0162187
953.186	0.0163595
953.264	0.0163171
953.342	0.0162569
953.420	0.0163602
953.498	0.0162518
953.576	0.0163254
953.655	0.0163561
953.733	0.0163535
953.811	0.0163860
953.889	0.0162676
953.967	0.0161232
954.045	0.0163223
954.123	0.0162719
954.201	0.0162858
954.280	0.0162871
954.358	0.0161588
954.436	0.0162862
954.514	0.0162476
954.592	0.0161337
954.670	0.0162442
954.748	0.0162645
954.826	0.0160990
954.905	0.0161848
954.983	0.0163342
955.061	0.0163370
955.139	0.0160831
955.217	0.0162042
955.295	0.0163428
955.373	0.0161514
955.451	0.0162430
955.530	0.0162486
955.608	0.0162184
955.686	0.0161272
955.764	0.0161253
955.842	0.0160888
955.920	0.0160838
955.998	0.0160258
956.076	0.0159133
956.155	0.0160654
956.233	0.0159841
956.311	0.0159967
956.389	0.0160472
956.467	0.0159045
956.545	0.0159437
956.623	0.0159416
956.701	0.0159817
956.780	0.0159708
956.858	0.0160453
956.936	0.0159551
957.014	0.0159734
957.092	0.0160719
957.170	0.0160072
957.248	0.0159752
957.326	0.0158530
957.405	0.0159338
957.483	0.0160125
957.561	0.0162026
957.639	0.0160416
957.717	0.0160088
957.795	0.0160580
957.873	0.0160291
957.951	0.0160223
958.030	0.0161396
958.108	0.0161993
958.186	0.0161638
958.264	0.0161596
958.342	0.0161347
958.420	0.0161678
958.498	0.0161883
958.576	0.0163219
958.655	0.0162170
958.733	0.0162345
958.811	0.0162337
958.889	0.0161832
958.967	0.0161673
959.045	0.0162572
959.123	0.0163143
959.201	0.0161726
959.280	0.0162230
959.358	0.0163080
959.436	0.0161806
959.514	0.0163530
959.592	0.0162547
959.670	0.0161153
959.748	0.0161820
959.826	0.0162134
959.905	0.0160816
