05/17/2022	16:55:59	Ver.	4.1	UNKNOWN
Optical Delay	639.982744	Delta X		0.078125	Sweeps	1	Scan Rate	0/0
Coordinates	Axis 1	NaN	Axis 2	NaN	Axis 3	NaN	Axis 4	NaN	Axis 5	NaN	Axis 6	0.000000
TX Power	0.000000	RX Power	0.000000

639.983	0.0156271
640.061	0.0156495
640.139	0.0157850
640.217	0.0158331
640.295	0.0157149
640.373	0.0156361
640.451	0.0157723
640.530	0.0155871
640.608	0.0155984
640.686	0.0156902
640.764	0.0156048
640.842	0.0155682
640.920	0.0155326
640.998	0.0155726
641.076	0.0154887
641.155	0.0155387
641.233	0.0154986
641.311	0.0156022
641.389	0.0155569
641.467	0.0156374
641.545	0.0156265
641.623	0.0155386
641.701	0.0156364
641.780	0.0158002
641.858	0.0157419
641.936	0.0157171
642.014	0.0156301
642.092	0.0157564
642.170	0.0157065
642.248	0.0156745
642.326	0.0157223
642.405	0.0156425
642.483	0.0157080
642.561	0.0156514
642.639	0.0156363
642.717	0.0156994
642.795	0.0156480
642.873	0.0155205
642.951	0.0155492
643.030	0.0155132
643.108	0.0154896
643.186	0.0154707
643.264	0.0154227
643.342	0.0156231
643.420	0.0154752
643.498	0.0155976
643.576	0.0155927
643.655	0.0154385
643.733	0.0155413
643.811	0.0155592
643.889	0.0155771
643.967	0.0156737
644.045	0.0156892
644.123	0.0157195
644.201	0.0157753
644.280	0.0158070
644.358	0.0158530
644.436	0.0155859
644.514	0.0158362
644.592	0.0157968
644.670	0.0157285
644.748	0.0158493
644.826	0.0156654
644.905	0.0158140
644.983	0.0156901
645.061	0.0156523
645.139	0.0156718
645.217	0.0155933
645.295	0.0156033
645.373	0.0156025
645.451	0.0156203
645.530	0.0155183
645.608	0.0154769
645.686	0.0154861
645.764	0.0154691
645.842	0.0155740
645.920	0.0155836
645.998	0.0155190
646.076	0.0155595
646.155	0.0155743
646.233	0.0155252
646.311	0.0155807
646.389	0.0156800
646.467	0.0155238
646.545	0.0156563
646.623	0.0155804
646.701	0.0156570
646.780	0.0157247
646.858	0.0157030
646.936	0.0156551
647.014	0.0156274
647.092	0.0158454
647.170	0.0157495
647.248	0.0156159
647.326	0.0155886
647.405	0.0156482
647.483	0.0155106
647.561	0.0156877
647.639	0.0155450
647.717	0.0156696
647.795	0.0156120
647.873	0.0154893
647.951	0.0155336
648.030	0.0157422
648.108	0.0157516
648.186	0.0155257
648.264	0.0155981
648.342	0.0156090
648.420	0.0156165
648.498	0.0155725
648.576	0.0156044
648.655	0.0156217
648.733	0.0155842
648.811	0.0156049
648.889	0.0156794
648.967	0.0156643
649.045	0.0156296
649.123	0.0157252
649.201	0.0157033
649.280	0.0157677
649.358	0.0156491
649.436	0.0156878
649.514	0.0157531
649.592	0.0157307
649.670	0.0156838
649.748	0.0157674
649.826	0.0156627
649.905	0.0157438
649.983	0.0157504
650.061	0.0155634
650.139	0.0155936
650.217	0.0156591
650.295	0.0157365
650.373	0.0156522
650.451	0.0156259
650.530	0.0156637
650.608	0.0156379
650.686	0.0156359
650.764	0.0156990
650.842	0.0156277
650.920	0.0156410
650.998	0.0156835
651.076	0.0156637
651.155	0.0156994
651.233	0.0155238
651.311	0.0155982
651.389	0.0155539
651.467	0.0156435
651.545	0.0157196
651.623	0.0156310
651.701	0.0156883
651.780	0.0158183
651.858	0.0157010
651.936	0.0157249
652.014	0.0156562
652.092	0.0159064
652.170	0.0158041
652.248	0.0157121
652.326	0.0157602
652.405	0.0158025
652.483	0.0156498
652.561	0.0157840
652.639	0.0156702
652.717	0.0156336
652.795	0.0155785
652.873	0.0155624
652.951	0.0156622
653.030	0.0155036
653.108	0.0156535
653.186	0.0155710
653.264	0.0156416
653.342	0.0156060
653.420	0.0156521
653.498	0.0154305
653.576	0.0155802
653.655	0.0156407
653.733	0.0156055
653.811	0.0158025
653.889	0.0158031
653.967	0.0157675
654.045	0.0157435
654.123	0.0158915
654.201	0.0157454
654.280	0.0157645
654.358	0.0159362
654.436	0.0157629
654.514	0.0157304
654.592	0.0158008
654.670	0.0159175
654.748	0.0158224
654.826	0.0158801
654.905	0.0157545
654.983	0.0158199
655.061	0.0157457
655.139	0.0156392
655.217	0.0157556
655.295	0.0157171
655.373	0.0156055
655.451	0.0157166
655.530	0.0155776
655.608	0.0155945
655.686	0.0156097
655.764	0.0157003
655.842	0.0156389
655.920	0.0157333
655.998	0.0156750
656.076	0.0156694
656.155	0.0156023
656.233	0.0156401
656.311	0.0156877
656.389	0.0157416
656.467	0.0157966
656.545	0.0158510
656.623	0.0158535
656.701	0.0158457
656.780	0.0158343
656.858	0.0158900
656.936	0.0159171
657.014	0.0158181
657.092	0.0158328
657.170	0.0158742
657.248	0.0157834
657.326	0.0157376
657.405	0.0157301
657.483	0.0156593
657.561	0.0156013
657.639	0.0156535
657.717	0.0156830
657.795	0.0154941
657.873	0.0155938
657.951	0.0155547
658.030	0.0155549
658.108	0.0153922
658.186	0.0154887
658.264	0.0153708
658.342	0.0155026
658.420	0.0155798
658.498	0.0155615
658.576	0.0155888
658.655	0.0156633
658.733	0.0156064
658.811	0.0155759
658.889	0.0157164
658.967	0.0157168
659.045	0.0157749
659.123	0.0158476
659.201	0.0158282
659.280	0.0158624
659.358	0.0157316
659.436	0.0156297
659.514	0.0157195
659.592	0.0158417
659.670	0.0156641
659.748	0.0156077
659.826	0.0154984
659.905	0.0153313
659.983	0.0154259
660.061	0.0153898
660.139	0.0152811
660.217	0.0151250
660.295	0.0152514
660.373	0.0151607
660.451	0.0152246
660.530	0.0152599
660.608	0.0152894
660.686	0.0152639
660.764	0.0154773
660.842	0.0154116
660.920	0.0155869
660.998	0.0155155
661.076	0.0155322
661.155	0.0156387
661.233	0.0156835
661.311	0.0157490
661.389	0.0157400
661.467	0.0157708
661.545	0.0158209
661.623	0.0158038
661.701	0.0157849
661.780	0.0157795
661.858	0.0158080
661.936	0.0159213
662.014	0.0158015
662.092	0.0156814
662.170	0.0158999
662.248	0.0155711
662.326	0.0155284
662.405	0.0156924
662.483	0.0155833
662.561	0.0156075
662.639	0.0155451
662.717	0.0154789
662.795	0.0157913
662.873	0.0155869
662.951	0.0156258
663.030	0.0156506
663.108	0.0157132
663.186	0.0157092
663.264	0.0157150
663.342	0.0157720
663.420	0.0158079
663.498	0.0157115
663.576	0.0157767
663.655	0.0158495
663.733	0.0157420
663.811	0.0157626
663.889	0.0157838
663.967	0.0157160
664.045	0.0156322
664.123	0.0156361
664.201	0.0158461
664.280	0.0157525
664.358	0.0156912
664.436	0.0157673
664.514	0.0156376
664.592	0.0156557
664.670	0.0155970
664.748	0.0157368
664.826	0.0156022
664.905	0.0157256
664.983	0.0156905
665.061	0.0155129
665.139	0.0156709
665.217	0.0155866
665.295	0.0153770
665.373	0.0154821
665.451	0.0155222
665.530	0.0154633
665.608	0.0154763
665.686	0.0154984
665.764	0.0153959
665.842	0.0154058
665.920	0.0153845
665.998	0.0155738
666.076	0.0154865
666.155	0.0155224
666.233	0.0154740
666.311	0.0154776
666.389	0.0153922
666.467	0.0154534
666.545	0.0156573
666.623	0.0154754
666.701	0.0153866
666.780	0.0155824
666.858	0.0155165
666.936	0.0154509
667.014	0.0155554
667.092	0.0154250
667.170	0.0153658
667.248	0.0154708
667.326	0.0153358
667.405	0.0153714
667.483	0.0153734
667.561	0.0152440
667.639	0.0152644
667.717	0.0153232
667.795	0.0151527
667.873	0.0152623
667.951	0.0152233
668.030	0.0153181
668.108	0.0152724
668.186	0.0154038
668.264	0.0154053
668.342	0.0154865
668.420	0.0154699
668.498	0.0156052
668.576	0.0155344
668.655	0.0156564
668.733	0.0157694
668.811	0.0159065
668.889	0.0158759
668.967	0.0158879
669.045	0.0159987
669.123	0.0160755
669.201	0.0158956
669.280	0.0159882
669.358	0.0159463
669.436	0.0159113
669.514	0.0158923
669.592	0.0158850
669.670	0.0157791
669.748	0.0157880
669.826	0.0156054
669.905	0.0156486
669.983	0.0156612
670.061	0.0156942
670.139	0.0156214
670.217	0.0157252
670.295	0.0156714
670.373	0.0155430
670.451	0.0157049
670.530	0.0157092
670.608	0.0157467
670.686	0.0157982
670.764	0.0160602
670.842	0.0160131
670.920	0.0160354
670.998	0.0161613
671.076	0.0162943
671.155	0.0161001
671.233	0.0161022
671.311	0.0162371
671.389	0.0163060
671.467	0.0161076
671.545	0.0159490
671.623	0.0160424
671.701	0.0159493
671.780	0.0157575
671.858	0.0157082
671.936	0.0156856
672.014	0.0155803
672.092	0.0155881
672.170	0.0154756
672.248	0.0155583
672.326	0.0156343
672.405	0.0154720
672.483	0.0153835
672.561	0.0154533
672.639	0.0155182
672.717	0.0156625
672.795	0.0155475
672.873	0.0156063
672.951	0.0157581
673.030	0.0156959
673.108	0.0155856
673.186	0.0157342
673.264	0.0157707
673.342	0.0158640
673.420	0.0158155
673.498	0.0157491
673.576	0.0158715
673.655	0.0157854
673.733	0.0158110
673.811	0.0158273
673.889	0.0157735
673.967	0.0157302
674.045	0.0158082
674.123	0.0158322
674.201	0.0157822
674.280	0.0157117
674.358	0.0156967
674.436	0.0159173
674.514	0.0157540
674.592	0.0155282
674.670	0.0155660
674.748	0.0157065
674.826	0.0156263
674.905	0.0154551
674.983	0.0153854
675.061	0.0153705
675.139	0.0154151
675.217	0.0153088
675.295	0.0153314
675.373	0.0154626
675.451	0.0151624
675.530	0.0150628
675.608	0.0151664
675.686	0.0152798
675.764	0.0151072
675.842	0.0151873
675.920	0.0152307
675.998	0.0153948
676.076	0.0154640
676.155	0.0155025
676.233	0.0154905
676.311	0.0154785
676.389	0.0156853
676.467	0.0157219
676.545	0.0156439
676.623	0.0156244
676.701	0.0159182
676.780	0.0158570
676.858	0.0157990
676.936	0.0158476
677.014	0.0158959
677.092	0.0158621
677.170	0.0158592
677.248	0.0157798
677.326	0.0158253
677.405	0.0158993
677.483	0.0157494
677.561	0.0157103
677.639	0.0156303
677.717	0.0158726
677.795	0.0158187
677.873	0.0158669
677.951	0.0157404
678.030	0.0157993
678.108	0.0159067
678.186	0.0159296
678.264	0.0158915
678.342	0.0158520
678.420	0.0159147
678.498	0.0158007
678.576	0.0157102
678.655	0.0156877
678.733	0.0157717
678.811	0.0157471
678.889	0.0156731
678.967	0.0155354
679.045	0.0154659
679.123	0.0154585
679.201	0.0154433
679.280	0.0154462
679.358	0.0152871
679.436	0.0153721
679.514	0.0152584
679.592	0.0149392
679.670	0.0149680
679.748	0.0148681
679.826	0.0148035
679.905	0.0147516
679.983	0.0147868
680.061	0.0146127
680.139	0.0147064
680.217	0.0146701
680.295	0.0148357
680.373	0.0148588
680.451	0.0151222
680.530	0.0152069
680.608	0.0152482
680.686	0.0153602
680.764	0.0156393
680.842	0.0158057
680.920	0.0161257
680.998	0.0161282
681.076	0.0164344
681.155	0.0165678
681.233	0.0167279
681.311	0.0168353
681.389	0.0168229
681.467	0.0169138
681.545	0.0170220
681.623	0.0169823
681.701	0.0169824
681.780	0.0168719
681.858	0.0168701
681.936	0.0167305
682.014	0.0166557
682.092	0.0165670
682.170	0.0164314
682.248	0.0162920
682.326	0.0161885
682.405	0.0159447
682.483	0.0155825
682.561	0.0156770
682.639	0.0153835
682.717	0.0151705
682.795	0.0151149
682.873	0.0150764
682.951	0.0147050
683.030	0.0146952
683.108	0.0146455
683.186	0.0144968
683.264	0.0143924
683.342	0.0142871
683.420	0.0143180
683.498	0.0143340
683.576	0.0143851
683.655	0.0145438
683.733	0.0144209
683.811	0.0144731
683.889	0.0145063
683.967	0.0145498
684.045	0.0148920
684.123	0.0148783
684.201	0.0150123
684.280	0.0151662
684.358	0.0151879
684.436	0.0154319
684.514	0.0156236
684.592	0.0157128
684.670	0.0158971
684.748	0.0159532
684.826	0.0160656
684.905	0.0162962
684.983	0.0163504
685.061	0.0164852
685.139	0.0163943
685.217	0.0164684
685.295	0.0163792
685.373	0.0162614
685.451	0.0162211
685.530	0.0163559
685.608	0.0161423
685.686	0.0159371
685.764	0.0157685
685.842	0.0157897
685.920	0.0158046
685.998	0.0155647
686.076	0.0154399
686.155	0.0155299
686.233	0.0153315
686.311	0.0153459
686.389	0.0153427
686.467	0.0153394
686.545	0.0152522
686.623	0.0152161
686.701	0.0152491
686.780	0.0152454
686.858	0.0150840
686.936	0.0151286
687.014	0.0150920
687.092	0.0152106
687.170	0.0151844
687.248	0.0151970
687.326	0.0152931
687.405	0.0153592
687.483	0.0153449
687.561	0.0154362
687.639	0.0155016
687.717	0.0157004
687.795	0.0157681
687.873	0.0158085
687.951	0.0158022
688.030	0.0157909
688.108	0.0159972
688.186	0.0160158
688.264	0.0159308
688.342	0.0160247
688.420	0.0160385
688.498	0.0159809
688.576	0.0160336
688.655	0.0160196
688.733	0.0161119
688.811	0.0160028
688.889	0.0161472
688.967	0.0160229
689.045	0.0160854
689.123	0.0161421
689.201	0.0161562
689.280	0.0161053
689.358	0.0161027
689.436	0.0159376
689.514	0.0158305
689.592	0.0158169
689.670	0.0157854
689.748	0.0156585
689.826	0.0155058
689.905	0.0152911
689.983	0.0153734
690.061	0.0151202
690.139	0.0150192
690.217	0.0149143
690.295	0.0149846
690.373	0.0147755
690.451	0.0147179
690.530	0.0146062
690.608	0.0146288
690.686	0.0146347
690.764	0.0146000
690.842	0.0145452
690.920	0.0147160
690.998	0.0145910
691.076	0.0145720
691.155	0.0146774
691.233	0.0147216
691.311	0.0149355
691.389	0.0150056
691.467	0.0151029
691.545	0.0153462
691.623	0.0155912
691.701	0.0155907
691.780	0.0156471
691.858	0.0159048
691.936	0.0160585
692.014	0.0162405
692.092	0.0164149
692.170	0.0165440
692.248	0.0166923
692.326	0.0168909
692.405	0.0168576
692.483	0.0170305
692.561	0.0172423
692.639	0.0170673
692.717	0.0171630
692.795	0.0171333
692.873	0.0168925
692.951	0.0166902
693.030	0.0166340
693.108	0.0163667
693.186	0.0162662
693.264	0.0161948
693.342	0.0159122
693.420	0.0157608
693.498	0.0153928
693.576	0.0151733
693.655	0.0150218
693.733	0.0150352
693.811	0.0148270
693.889	0.0146202
693.967	0.0147556
694.045	0.0147798
694.123	0.0146384
694.201	0.0146951
694.280	0.0146112
694.358	0.0147621
694.436	0.0148549
694.514	0.0151338
694.592	0.0151851
694.670	0.0151552
694.748	0.0155399
694.826	0.0156210
694.905	0.0156770
694.983	0.0158330
695.061	0.0159783
695.139	0.0158398
695.217	0.0160030
695.295	0.0161022
695.373	0.0159734
695.451	0.0159985
695.530	0.0159712
695.608	0.0158294
695.686	0.0159186
695.764	0.0157316
695.842	0.0156970
695.920	0.0156043
695.998	0.0154671
696.076	0.0155875
696.155	0.0153603
696.233	0.0153075
696.311	0.0152008
696.389	0.0151839
696.467	0.0154240
696.545	0.0154953
696.623	0.0153671
696.701	0.0154843
696.780	0.0156097
696.858	0.0156194
696.936	0.0157040
697.014	0.0158139
697.092	0.0158509
697.170	0.0158784
697.248	0.0159107
697.326	0.0160178
697.405	0.0160102
697.483	0.0160541
697.561	0.0159936
697.639	0.0160805
697.717	0.0160423
697.795	0.0160154
697.873	0.0159556
697.951	0.0158477
698.030	0.0157219
698.108	0.0157439
698.186	0.0156838
698.264	0.0156268
698.342	0.0156997
698.420	0.0156919
698.498	0.0156412
698.576	0.0155344
698.655	0.0156249
698.733	0.0157530
698.811	0.0155415
698.889	0.0153966
698.967	0.0155530
699.045	0.0155150
699.123	0.0153651
699.201	0.0154618
699.280	0.0154570
699.358	0.0154552
699.436	0.0154507
699.514	0.0153859
699.592	0.0153436
699.670	0.0155502
699.748	0.0155069
699.826	0.0154831
699.905	0.0155055
699.983	0.0154034
700.061	0.0154963
700.139	0.0156076
700.217	0.0156006
700.295	0.0156236
700.373	0.0156325
700.451	0.0155708
700.530	0.0155450
700.608	0.0155856
700.686	0.0157124
700.764	0.0157258
700.842	0.0155999
700.920	0.0158426
700.998	0.0157785
701.076	0.0157629
701.155	0.0157329
701.233	0.0158362
701.311	0.0159550
701.389	0.0158418
701.467	0.0158514
701.545	0.0159206
701.623	0.0159648
701.701	0.0160560
701.780	0.0159734
701.858	0.0160654
701.936	0.0161276
702.014	0.0159354
702.092	0.0161561
702.170	0.0160542
702.248	0.0159186
702.326	0.0157398
702.405	0.0158732
702.483	0.0158246
702.561	0.0158026
702.639	0.0156451
702.717	0.0155383
702.795	0.0153738
702.873	0.0153857
702.951	0.0152189
703.030	0.0152894
703.108	0.0149997
703.186	0.0150391
703.264	0.0150106
703.342	0.0148573
703.420	0.0149236
703.498	0.0148809
703.576	0.0148962
703.655	0.0150266
703.733	0.0149918
703.811	0.0151376
703.889	0.0151890
703.967	0.0152456
704.045	0.0153369
704.123	0.0153825
704.201	0.0155624
704.280	0.0155888
704.358	0.0155287
704.436	0.0157380
704.514	0.0156787
704.592	0.0156907
704.670	0.0156859
704.748	0.0154600
704.826	0.0155212
704.905	0.0153448
704.983	0.0153526
705.061	0.0151070
705.139	0.0152403
705.217	0.0152469
705.295	0.0150570
705.373	0.0151016
705.451	0.0150336
705.530	0.0150565
705.608	0.0151045
705.686	0.0150036
705.764	0.0151874
705.842	0.0152050
705.920	0.0150358
705.998	0.0153911
706.076	0.0153843
706.155	0.0153886
706.233	0.0154458
706.311	0.0154732
706.389	0.0155724
706.467	0.0158584
706.545	0.0156709
706.623	0.0159265
706.701	0.0160250
706.780	0.0158981
706.858	0.0160532
706.936	0.0161765
707.014	0.0160188
707.092	0.0161164
707.170	0.0162241
707.248	0.0161276
707.326	0.0162997
707.405	0.0162447
707.483	0.0163098
707.561	0.0162406
707.639	0.0162965
707.717	0.0164922
707.795	0.0162650
707.873	0.0163603
707.951	0.0163083
708.030	0.0163039
708.108	0.0162182
708.186	0.0160925
708.264	0.0161038
708.342	0.0160721
708.420	0.0159065
708.498	0.0159258
708.576	0.0157007
708.655	0.0157677
708.733	0.0156107
708.811	0.0156286
708.889	0.0156220
708.967	0.0156537
709.045	0.0154601
709.123	0.0154060
709.201	0.0153562
709.280	0.0153989
709.358	0.0151962
709.436	0.0150882
709.514	0.0151479
709.592	0.0151836
709.670	0.0149635
709.748	0.0149452
709.826	0.0149834
709.905	0.0148875
709.983	0.0148230
710.061	0.0147639
710.139	0.0147753
710.217	0.0148698
710.295	0.0151354
710.373	0.0149775
710.451	0.0149755
710.530	0.0150952
710.608	0.0151424
710.686	0.0150365
710.764	0.0153096
710.842	0.0152445
710.920	0.0151551
710.998	0.0153181
711.076	0.0153999
711.155	0.0154169
711.233	0.0153796
711.311	0.0154414
711.389	0.0155577
711.467	0.0155840
711.545	0.0156348
711.623	0.0156824
711.701	0.0157745
711.780	0.0157359
711.858	0.0156346
711.936	0.0157030
712.014	0.0158566
712.092	0.0158374
712.170	0.0160493
712.248	0.0159254
712.326	0.0158876
712.405	0.0160826
712.483	0.0162230
712.561	0.0163587
712.639	0.0163857
712.717	0.0163373
712.795	0.0163586
712.873	0.0163173
712.951	0.0164564
713.030	0.0164304
713.108	0.0164262
713.186	0.0163468
713.264	0.0163827
713.342	0.0162979
713.420	0.0162119
713.498	0.0161777
713.576	0.0161459
713.655	0.0160443
713.733	0.0159423
713.811	0.0160701
713.889	0.0158163
713.967	0.0158055
714.045	0.0158885
714.123	0.0158689
714.201	0.0157762
714.280	0.0157531
714.358	0.0157274
714.436	0.0158199
714.514	0.0158498
714.592	0.0156779
714.670	0.0157256
714.748	0.0157506
714.826	0.0156756
714.905	0.0156683
714.983	0.0156379
715.061	0.0156975
715.139	0.0155845
715.217	0.0155766
715.295	0.0153866
715.373	0.0154616
715.451	0.0152885
715.530	0.0152557
715.608	0.0152232
715.686	0.0151083
715.764	0.0150943
715.842	0.0150287
715.920	0.0151633
715.998	0.0151452
716.076	0.0150192
716.155	0.0150820
716.233	0.0151710
716.311	0.0152544
716.389	0.0153744
716.467	0.0153883
716.545	0.0153523
716.623	0.0153347
716.701	0.0153693
716.780	0.0155092
716.858	0.0154211
716.936	0.0154247
717.014	0.0155647
717.092	0.0154986
717.170	0.0154437
717.248	0.0153822
717.326	0.0152601
717.405	0.0151535
717.483	0.0151674
717.561	0.0150481
717.639	0.0149850
717.717	0.0151626
717.795	0.0150658
717.873	0.0151299
717.951	0.0150893
718.030	0.0151233
718.108	0.0151963
718.186	0.0152427
718.264	0.0152088
718.342	0.0153339
718.420	0.0153281
718.498	0.0154617
718.576	0.0155534
718.655	0.0157034
718.733	0.0156994
718.811	0.0159525
718.889	0.0159595
718.967	0.0160369
719.045	0.0161158
719.123	0.0162836
719.201	0.0163191
719.280	0.0164452
719.358	0.0165148
719.436	0.0165237
719.514	0.0165983
719.592	0.0165308
719.670	0.0165096
719.748	0.0165372
719.826	0.0166048
719.905	0.0164481
719.983	0.0164298
720.061	0.0164991
720.139	0.0162543
720.217	0.0162388
720.295	0.0161588
720.373	0.0160260
720.451	0.0158849
720.530	0.0158126
720.608	0.0156976
720.686	0.0156944
720.764	0.0154496
720.842	0.0155000
720.920	0.0153982
720.998	0.0153757
721.076	0.0154313
721.155	0.0153987
721.233	0.0151602
721.311	0.0152808
721.389	0.0152285
721.467	0.0151704
721.545	0.0153320
721.623	0.0152869
721.701	0.0153553
721.780	0.0153500
721.858	0.0151952
721.936	0.0152379
722.014	0.0151092
722.092	0.0151781
722.170	0.0152106
722.248	0.0151383
722.326	0.0151479
722.405	0.0152062
722.483	0.0151713
722.561	0.0152973
722.639	0.0154475
722.717	0.0153912
722.795	0.0154534
722.873	0.0155700
722.951	0.0155334
723.030	0.0155676
723.108	0.0155572
723.186	0.0155965
723.264	0.0155489
723.342	0.0155925
723.420	0.0155750
723.498	0.0156702
723.576	0.0156381
723.655	0.0156693
723.733	0.0156506
723.811	0.0158457
723.889	0.0157323
723.967	0.0156136
724.045	0.0156917
724.123	0.0156693
724.201	0.0157731
724.280	0.0157048
724.358	0.0156528
724.436	0.0157378
724.514	0.0156984
724.592	0.0157449
724.670	0.0156104
724.748	0.0153716
724.826	0.0155320
724.905	0.0154613
724.983	0.0153634
725.061	0.0153735
725.139	0.0153402
725.217	0.0152293
725.295	0.0154418
725.373	0.0154425
725.451	0.0154141
725.530	0.0153142
725.608	0.0152815
725.686	0.0153929
725.764	0.0155522
725.842	0.0155823
725.920	0.0156953
725.998	0.0158102
726.076	0.0158685
726.155	0.0158053
726.233	0.0159682
726.311	0.0161814
726.389	0.0161576
726.467	0.0163103
726.545	0.0161575
726.623	0.0160269
726.701	0.0160783
726.780	0.0159955
726.858	0.0160714
726.936	0.0158311
727.014	0.0157623
727.092	0.0157808
727.170	0.0156921
727.248	0.0156375
727.326	0.0154903
727.405	0.0153696
727.483	0.0155051
727.561	0.0151814
727.639	0.0152679
727.717	0.0152452
727.795	0.0152746
727.873	0.0152042
727.951	0.0152409
728.030	0.0153349
728.108	0.0153129
728.186	0.0151958
728.264	0.0153450
728.342	0.0153580
728.420	0.0152899
728.498	0.0153875
728.576	0.0154525
728.655	0.0156211
728.733	0.0153818
728.811	0.0154357
728.889	0.0154404
728.967	0.0155384
729.045	0.0154160
729.123	0.0154498
729.201	0.0152949
729.280	0.0152572
729.358	0.0152757
729.436	0.0153075
729.514	0.0151551
729.592	0.0152228
729.670	0.0152131
729.748	0.0154088
729.826	0.0154925
729.905	0.0155385
729.983	0.0156487
730.061	0.0157632
730.139	0.0158698
730.217	0.0158833
730.295	0.0161087
730.373	0.0162557
730.451	0.0161922
730.530	0.0162195
730.608	0.0163969
730.686	0.0164949
730.764	0.0163323
730.842	0.0163913
730.920	0.0166190
730.998	0.0165573
731.076	0.0165553
731.155	0.0163573
731.233	0.0164905
731.311	0.0165798
731.389	0.0164520
731.467	0.0161932
731.545	0.0160503
731.623	0.0160776
731.701	0.0160027
731.780	0.0156500
731.858	0.0157088
731.936	0.0156297
732.014	0.0155545
732.092	0.0153858
732.170	0.0153084
732.248	0.0153902
732.326	0.0153335
732.405	0.0153177
732.483	0.0152508
732.561	0.0151501
732.639	0.0152997
732.717	0.0152932
732.795	0.0153039
732.873	0.0154421
732.951	0.0152992
733.030	0.0153157
733.108	0.0153120
733.186	0.0154454
733.264	0.0153199
733.342	0.0152296
733.420	0.0151180
733.498	0.0152592
733.576	0.0150784
733.655	0.0151130
733.733	0.0150845
733.811	0.0150904
733.889	0.0150967
733.967	0.0152628
734.045	0.0152776
734.123	0.0152089
734.201	0.0154363
734.280	0.0153387
734.358	0.0153785
734.436	0.0153555
734.514	0.0154650
734.592	0.0155820
734.670	0.0153786
734.748	0.0155579
734.826	0.0157733
734.905	0.0157567
734.983	0.0158273
735.061	0.0159253
735.139	0.0159587
735.217	0.0159756
735.295	0.0159859
735.373	0.0160843
735.451	0.0159979
735.530	0.0159381
735.608	0.0158606
735.686	0.0159940
735.764	0.0159498
735.842	0.0158153
735.920	0.0158298
735.998	0.0158042
736.076	0.0157004
736.155	0.0156912
736.233	0.0156749
736.311	0.0155578
736.389	0.0155208
736.467	0.0156036
736.545	0.0157059
736.623	0.0156020
736.701	0.0155837
736.780	0.0156055
736.858	0.0157172
736.936	0.0156760
737.014	0.0156097
737.092	0.0158482
737.170	0.0157713
737.248	0.0160042
737.326	0.0159485
737.405	0.0158460
737.483	0.0157973
737.561	0.0158900
737.639	0.0158794
737.717	0.0158854
737.795	0.0160316
737.873	0.0159367
737.951	0.0159647
738.030	0.0159348
738.108	0.0159265
738.186	0.0159015
738.264	0.0160396
738.342	0.0159821
738.420	0.0159954
738.498	0.0159436
738.576	0.0161115
738.655	0.0161275
738.733	0.0160466
738.811	0.0160307
738.889	0.0159634
738.967	0.0157594
739.045	0.0158123
739.123	0.0158957
739.201	0.0159724
739.280	0.0155900
739.358	0.0154387
739.436	0.0154212
739.514	0.0154873
739.592	0.0153761
739.670	0.0152531
739.748	0.0152019
739.826	0.0152325
739.905	0.0151448
739.983	0.0151338
740.061	0.0151564
740.139	0.0150613
740.217	0.0150275
740.295	0.0150040
740.373	0.0150467
740.451	0.0148785
740.530	0.0149160
740.608	0.0148935
740.686	0.0148845
740.764	0.0150074
740.842	0.0148059
740.920	0.0149621
740.998	0.0149238
741.076	0.0149057
741.155	0.0148505
741.233	0.0148341
741.311	0.0149579
741.389	0.0149650
741.467	0.0150291
741.545	0.0151363
741.623	0.0150101
741.701	0.0151571
741.780	0.0150768
741.858	0.0151409
741.936	0.0151946
742.014	0.0153828
742.092	0.0155688
742.170	0.0155970
742.248	0.0155242
742.326	0.0156507
742.405	0.0157411
742.483	0.0158212
742.561	0.0160278
742.639	0.0159122
742.717	0.0160493
742.795	0.0161698
742.873	0.0160692
742.951	0.0161504
743.030	0.0162237
743.108	0.0163553
743.186	0.0164933
743.264	0.0163261
743.342	0.0164565
743.420	0.0163239
743.498	0.0164165
743.576	0.0164373
743.655	0.0162841
743.733	0.0161938
743.811	0.0161432
743.889	0.0160097
743.967	0.0160175
744.045	0.0158067
744.123	0.0157162
744.201	0.0157694
744.280	0.0156466
744.358	0.0155692
744.436	0.0154639
744.514	0.0153893
744.592	0.0154503
744.670	0.0154669
744.748	0.0154958
744.826	0.0155453
744.905	0.0155818
744.983	0.0156830
745.061	0.0156872
745.139	0.0157478
745.217	0.0157535
745.295	0.0157983
745.373	0.0159140
745.451	0.0159410
745.530	0.0158215
745.608	0.0158882
745.686	0.0159927
745.764	0.0159821
745.842	0.0159801
745.920	0.0159870
745.998	0.0159061
746.076	0.0158457
746.155	0.0158961
746.233	0.0157391
746.311	0.0155739
746.389	0.0158076
746.467	0.0157838
746.545	0.0154338
746.623	0.0154570
746.701	0.0153959
746.780	0.0152708
746.858	0.0151623
746.936	0.0152302
747.014	0.0151527
747.092	0.0149939
747.170	0.0149727
747.248	0.0148367
747.326	0.0147906
747.405	0.0148772
747.483	0.0148373
747.561	0.0148013
747.639	0.0150082
747.717	0.0149220
747.795	0.0150367
747.873	0.0148959
747.951	0.0151529
748.030	0.0151987
748.108	0.0152210
748.186	0.0152264
748.264	0.0152860
748.342	0.0153611
748.420	0.0152139
748.498	0.0152268
748.576	0.0149529
748.655	0.0151640
748.733	0.0151655
748.811	0.0150744
748.889	0.0152281
748.967	0.0151834
749.045	0.0152206
749.123	0.0153527
749.201	0.0152329
749.280	0.0152507
749.358	0.0153243
749.436	0.0153474
749.514	0.0154562
749.592	0.0155101
749.670	0.0154385
749.748	0.0155571
749.826	0.0157492
749.905	0.0157937
749.983	0.0158452
750.061	0.0159812
750.139	0.0161137
750.217	0.0161520
750.295	0.0162914
750.373	0.0163790
750.451	0.0165299
750.530	0.0166161
750.608	0.0167376
750.686	0.0167098
750.764	0.0167176
750.842	0.0167085
750.920	0.0167910
750.998	0.0169016
751.076	0.0167514
751.155	0.0167110
751.233	0.0165858
751.311	0.0165770
751.389	0.0164720
751.467	0.0162334
751.545	0.0162008
751.623	0.0160604
751.701	0.0158513
751.780	0.0157895
751.858	0.0156354
751.936	0.0155655
752.014	0.0155639
752.092	0.0154846
752.170	0.0153413
752.248	0.0152066
752.326	0.0152186
752.405	0.0152084
752.483	0.0152320
752.561	0.0151202
752.639	0.0151080
752.717	0.0152271
752.795	0.0152274
752.873	0.0152676
752.951	0.0153655
753.030	0.0153652
753.108	0.0153798
753.186	0.0155156
753.264	0.0156725
753.342	0.0154908
753.420	0.0155806
753.498	0.0155644
753.576	0.0156425
753.655	0.0156207
753.733	0.0157668
753.811	0.0158016
753.889	0.0156376
753.967	0.0156999
754.045	0.0157286
754.123	0.0155744
754.201	0.0157861
754.280	0.0157453
754.358	0.0156453
754.436	0.0155331
754.514	0.0156363
754.592	0.0156302
754.670	0.0155233
754.748	0.0155927
754.826	0.0154102
754.905	0.0154807
754.983	0.0154413
755.061	0.0154329
755.139	0.0152770
755.217	0.0153410
755.295	0.0153604
755.373	0.0153194
755.451	0.0155228
755.530	0.0154511
755.608	0.0153436
755.686	0.0153462
755.764	0.0155028
755.842	0.0153800
755.920	0.0154001
755.998	0.0152377
756.076	0.0151743
756.155	0.0154027
756.233	0.0152853
756.311	0.0152255
756.389	0.0152799
756.467	0.0151398
756.545	0.0152769
756.623	0.0152982
756.701	0.0152454
756.780	0.0151722
756.858	0.0153676
756.936	0.0153356
757.014	0.0153005
757.092	0.0152586
757.170	0.0153530
757.248	0.0154819
757.326	0.0154415
757.405	0.0154218
757.483	0.0155397
757.561	0.0154056
757.639	0.0155769
757.717	0.0156437
757.795	0.0158432
757.873	0.0158102
757.951	0.0158859
758.030	0.0159672
758.108	0.0159738
758.186	0.0161006
758.264	0.0162397
758.342	0.0161482
758.420	0.0161945
758.498	0.0162923
758.576	0.0165433
758.655	0.0165787
758.733	0.0165605
758.811	0.0165258
758.889	0.0165179
758.967	0.0164932
759.045	0.0165721
759.123	0.0164510
759.201	0.0164978
759.280	0.0162958
759.358	0.0163677
759.436	0.0163190
759.514	0.0162073
759.592	0.0161037
759.670	0.0160481
759.748	0.0159869
759.826	0.0159184
759.905	0.0159520
759.983	0.0157690
760.061	0.0157432
760.139	0.0157139
760.217	0.0156476
760.295	0.0155629
760.373	0.0153606
760.451	0.0154016
760.530	0.0154765
760.608	0.0153644
760.686	0.0153936
760.764	0.0153182
760.842	0.0152684
760.920	0.0152802
760.998	0.0152049
761.076	0.0153127
761.155	0.0152799
761.233	0.0151623
761.311	0.0153359
761.389	0.0152603
761.467	0.0153645
761.545	0.0154162
761.623	0.0154301
761.701	0.0154204
761.780	0.0154497
761.858	0.0154601
761.936	0.0154337
762.014	0.0153523
762.092	0.0154582
762.170	0.0154295
762.248	0.0153069
762.326	0.0154634
762.405	0.0152564
762.483	0.0153404
762.561	0.0153951
762.639	0.0152384
762.717	0.0151349
762.795	0.0151139
762.873	0.0151753
762.951	0.0152390
763.030	0.0152339
763.108	0.0151391
763.186	0.0152056
763.264	0.0152528
763.342	0.0153127
763.420	0.0154432
763.498	0.0154094
763.576	0.0154687
763.655	0.0154263
763.733	0.0155585
763.811	0.0156399
763.889	0.0156382
763.967	0.0156605
764.045	0.0156445
764.123	0.0156431
764.201	0.0156503
764.280	0.0156255
764.358	0.0155164
764.436	0.0155016
764.514	0.0155260
764.592	0.0154072
764.670	0.0154143
764.748	0.0153683
764.826	0.0153243
764.905	0.0154655
764.983	0.0154305
765.061	0.0152507
765.139	0.0153606
765.217	0.0154718
765.295	0.0155025
765.373	0.0156414
765.451	0.0156190
765.530	0.0158813
765.608	0.0158736
765.686	0.0159135
765.764	0.0159071
765.842	0.0160933
765.920	0.0160287
765.998	0.0161110
766.076	0.0161425
766.155	0.0160757
766.233	0.0161945
766.311	0.0161312
766.389	0.0161875
766.467	0.0161300
766.545	0.0161831
766.623	0.0161760
766.701	0.0162532
766.780	0.0162104
766.858	0.0162636
766.936	0.0162831
767.014	0.0162289
767.092	0.0162371
767.170	0.0164183
767.248	0.0163111
767.326	0.0162640
767.405	0.0162473
767.483	0.0163777
767.561	0.0161789
767.639	0.0162306
767.717	0.0161952
767.795	0.0161574
767.873	0.0158296
767.951	0.0158344
768.030	0.0158883
768.108	0.0156001
768.186	0.0155042
768.264	0.0154176
768.342	0.0154424
768.420	0.0151632
768.498	0.0152433
768.576	0.0152253
768.655	0.0149132
768.733	0.0149181
768.811	0.0150529
768.889	0.0150626
768.967	0.0149989
769.045	0.0149146
769.123	0.0148920
769.201	0.0151237
769.280	0.0150948
769.358	0.0150613
769.436	0.0150787
769.514	0.0151930
769.592	0.0152644
769.670	0.0153128
769.748	0.0151746
769.826	0.0152390
769.905	0.0153609
769.983	0.0152834
770.061	0.0153522
770.139	0.0154979
770.217	0.0154240
770.295	0.0153555
770.373	0.0153382
770.451	0.0153561
770.530	0.0152304
770.608	0.0153383
770.686	0.0153455
770.764	0.0152603
770.842	0.0152583
770.920	0.0153587
770.998	0.0151847
771.076	0.0152608
771.155	0.0152425
771.233	0.0152734
771.311	0.0153026
771.389	0.0153781
771.467	0.0155473
771.545	0.0155535
771.623	0.0155415
771.701	0.0155794
771.780	0.0154889
771.858	0.0156767
771.936	0.0156783
772.014	0.0155749
772.092	0.0155997
772.170	0.0156321
772.248	0.0155930
772.326	0.0156592
772.405	0.0156477
772.483	0.0154236
772.561	0.0154962
772.639	0.0156340
772.717	0.0155257
772.795	0.0155125
772.873	0.0155269
772.951	0.0155437
773.030	0.0156312
773.108	0.0155526
773.186	0.0156130
773.264	0.0156727
773.342	0.0157873
773.420	0.0158379
773.498	0.0158102
773.576	0.0157464
773.655	0.0159068
773.733	0.0157536
773.811	0.0157896
773.889	0.0158820
773.967	0.0158995
774.045	0.0158382
774.123	0.0157050
774.201	0.0158591
774.280	0.0158858
774.358	0.0157679
774.436	0.0158895
774.514	0.0157623
774.592	0.0159008
774.670	0.0159887
774.748	0.0159967
774.826	0.0160455
774.905	0.0160195
774.983	0.0161207
775.061	0.0161489
775.139	0.0162254
775.217	0.0163221
775.295	0.0162312
775.373	0.0161796
775.451	0.0162805
775.530	0.0162194
775.608	0.0162186
775.686	0.0162500
775.764	0.0161366
775.842	0.0159899
775.920	0.0159734
775.998	0.0159363
776.076	0.0158190
776.155	0.0157040
776.233	0.0155708
776.311	0.0155383
776.389	0.0154437
776.467	0.0153281
776.545	0.0151842
776.623	0.0150151
776.701	0.0148557
776.780	0.0149721
776.858	0.0149332
776.936	0.0148177
777.014	0.0148866
777.092	0.0147020
777.170	0.0148280
777.248	0.0149092
777.326	0.0149208
777.405	0.0149224
777.483	0.0148941
777.561	0.0149472
777.639	0.0150002
777.717	0.0150155
777.795	0.0153718
777.873	0.0154383
777.951	0.0153758
778.030	0.0154638
778.108	0.0155742
778.186	0.0157961
778.264	0.0156771
778.342	0.0158444
778.420	0.0157249
778.498	0.0157037
778.576	0.0157822
778.655	0.0157447
778.733	0.0157791
778.811	0.0156144
778.889	0.0156216
778.967	0.0154840
779.045	0.0154340
779.123	0.0154778
779.201	0.0154577
779.280	0.0155692
779.358	0.0153933
779.436	0.0152867
779.514	0.0154771
779.592	0.0154316
779.670	0.0154333
779.748	0.0154174
779.826	0.0154687
779.905	0.0156075
779.983	0.0157574
780.061	0.0156063
780.139	0.0157969
780.217	0.0156357
780.295	0.0155525
780.373	0.0157185
780.451	0.0156808
780.530	0.0156602
780.608	0.0157317
780.686	0.0156882
780.764	0.0157265
780.842	0.0157456
780.920	0.0156453
780.998	0.0157425
781.076	0.0158029
781.155	0.0156979
781.233	0.0159035
781.311	0.0156886
781.389	0.0157576
781.467	0.0159257
781.545	0.0158961
781.623	0.0160088
781.701	0.0158918
781.780	0.0158053
781.858	0.0156744
781.936	0.0157967
782.014	0.0158348
782.092	0.0157816
782.170	0.0156068
782.248	0.0157317
782.326	0.0158443
782.405	0.0156656
782.483	0.0157755
782.561	0.0157798
782.639	0.0155847
782.717	0.0156329
782.795	0.0158847
782.873	0.0157344
782.951	0.0158189
783.030	0.0158923
783.108	0.0157471
783.186	0.0158637
783.264	0.0159848
783.342	0.0158937
783.420	0.0158410
783.498	0.0158599
783.576	0.0159606
783.655	0.0158142
783.733	0.0158731
783.811	0.0159257
783.889	0.0159995
783.967	0.0158764
784.045	0.0158275
784.123	0.0157791
784.201	0.0156017
784.280	0.0157090
784.358	0.0156268
784.436	0.0154517
784.514	0.0154424
784.592	0.0153172
784.670	0.0152892
784.748	0.0151593
784.826	0.0151456
784.905	0.0150489
784.983	0.0149118
785.061	0.0149403
785.139	0.0149001
785.217	0.0150020
785.295	0.0147527
785.373	0.0149732
785.451	0.0150500
785.530	0.0149744
785.608	0.0151627
785.686	0.0152139
785.764	0.0151057
785.842	0.0152202
785.920	0.0153861
785.998	0.0154000
786.076	0.0155614
786.155	0.0155318
786.233	0.0156279
786.311	0.0156717
786.389	0.0157098
786.467	0.0157466
786.545	0.0158363
786.623	0.0158235
786.701	0.0158506
786.780	0.0158897
786.858	0.0157915
786.936	0.0156759
787.014	0.0156717
787.092	0.0156150
787.170	0.0156281
787.248	0.0155003
787.326	0.0154779
787.405	0.0154382
787.483	0.0154713
787.561	0.0154124
787.639	0.0152621
787.717	0.0153599
787.795	0.0154792
787.873	0.0155678
787.951	0.0156046
788.030	0.0158643
788.108	0.0156656
788.186	0.0159049
788.264	0.0158559
788.342	0.0159131
788.420	0.0161349
788.498	0.0160573
788.576	0.0160293
788.655	0.0161981
788.733	0.0162975
788.811	0.0162460
788.889	0.0162074
788.967	0.0160941
789.045	0.0161127
789.123	0.0162181
789.201	0.0159941
789.280	0.0159464
789.358	0.0157935
789.436	0.0160175
789.514	0.0159918
789.592	0.0158672
789.670	0.0157459
789.748	0.0157437
789.826	0.0157603
789.905	0.0155933
789.983	0.0156984
790.061	0.0155728
790.139	0.0156921
790.217	0.0154697
790.295	0.0155456
790.373	0.0154572
790.451	0.0154004
790.530	0.0155688
790.608	0.0154611
790.686	0.0154290
790.764	0.0154865
790.842	0.0153283
790.920	0.0155361
790.998	0.0155088
791.076	0.0154562
791.155	0.0155322
791.233	0.0156741
791.311	0.0157038
791.389	0.0157693
791.467	0.0156088
791.545	0.0156836
791.623	0.0159994
791.701	0.0158857
791.780	0.0158431
791.858	0.0159979
791.936	0.0160683
792.014	0.0161345
792.092	0.0159239
792.170	0.0159364
792.248	0.0159731
792.326	0.0161791
792.405	0.0160439
792.483	0.0158776
792.561	0.0157810
792.639	0.0157463
792.717	0.0155539
792.795	0.0154520
792.873	0.0154383
792.951	0.0152300
793.030	0.0150735
793.108	0.0150091
793.186	0.0150326
793.264	0.0150158
793.342	0.0149969
793.420	0.0149400
793.498	0.0148331
793.576	0.0150137
793.655	0.0149635
793.733	0.0150981
793.811	0.0151562
793.889	0.0152046
793.967	0.0152417
794.045	0.0153381
794.123	0.0155581
794.201	0.0156474
794.280	0.0155885
794.358	0.0157708
794.436	0.0157059
794.514	0.0158799
794.592	0.0158399
794.670	0.0161666
794.748	0.0160036
794.826	0.0159243
794.905	0.0161108
794.983	0.0160761
795.061	0.0160267
795.139	0.0159224
795.217	0.0157133
795.295	0.0158273
795.373	0.0155943
795.451	0.0156678
795.530	0.0156641
795.608	0.0155315
795.686	0.0153922
795.764	0.0154681
795.842	0.0152028
795.920	0.0153401
795.998	0.0153544
796.076	0.0154520
796.155	0.0154649
796.233	0.0155967
796.311	0.0157979
796.389	0.0158160
796.467	0.0159112
796.545	0.0159747
796.623	0.0158787
796.701	0.0159887
796.780	0.0160432
796.858	0.0160482
796.936	0.0160555
797.014	0.0161114
797.092	0.0161048
797.170	0.0159865
797.248	0.0159062
797.326	0.0156741
797.405	0.0156012
797.483	0.0157115
797.561	0.0156776
797.639	0.0155647
797.717	0.0155424
797.795	0.0153778
797.873	0.0153748
797.951	0.0154762
798.030	0.0154000
798.108	0.0152710
798.186	0.0154353
798.264	0.0154811
798.342	0.0154579
798.420	0.0154814
798.498	0.0156117
798.576	0.0155989
798.655	0.0155986
798.733	0.0155910
798.811	0.0156131
798.889	0.0157305
798.967	0.0155569
799.045	0.0156502
799.123	0.0158241
799.201	0.0157057
799.280	0.0156694
799.358	0.0157484
799.436	0.0158373
799.514	0.0156127
799.592	0.0156822
799.670	0.0156918
799.748	0.0157713
799.826	0.0159216
799.905	0.0157672
799.983	0.0156408
800.061	0.0157944
800.139	0.0159434
800.217	0.0159789
800.295	0.0158969
800.373	0.0158467
800.451	0.0160627
800.530	0.0158717
800.608	0.0159563
800.686	0.0158624
800.764	0.0155752
800.842	0.0156883
800.920	0.0156378
800.998	0.0154072
801.076	0.0153165
801.155	0.0152540
801.233	0.0150848
801.311	0.0151066
801.389	0.0149392
801.467	0.0149498
801.545	0.0148251
801.623	0.0148339
801.701	0.0148031
801.780	0.0147272
801.858	0.0148094
801.936	0.0148386
802.014	0.0148536
802.092	0.0149094
802.170	0.0148776
802.248	0.0151180
802.326	0.0150900
802.405	0.0152463
802.483	0.0153328
802.561	0.0154226
802.639	0.0154810
802.717	0.0156187
802.795	0.0156474
802.873	0.0159732
802.951	0.0158491
803.030	0.0158406
803.108	0.0158574
803.186	0.0158403
803.264	0.0158378
803.342	0.0157658
803.420	0.0157935
803.498	0.0156180
803.576	0.0158069
803.655	0.0156341
803.733	0.0156702
803.811	0.0156934
803.889	0.0155753
803.967	0.0156380
804.045	0.0156073
804.123	0.0155753
804.201	0.0156046
804.280	0.0157104
804.358	0.0156142
804.436	0.0157632
804.514	0.0159541
804.592	0.0158226
804.670	0.0161199
804.748	0.0161899
804.826	0.0162174
804.905	0.0161956
804.983	0.0161742
805.061	0.0163087
805.139	0.0163591
805.217	0.0161353
805.295	0.0161757
805.373	0.0161453
805.451	0.0160374
805.530	0.0159597
805.608	0.0158447
805.686	0.0157620
805.764	0.0155827
805.842	0.0155692
805.920	0.0155472
805.998	0.0155069
806.076	0.0154068
806.155	0.0152611
806.233	0.0152154
806.311	0.0152927
806.389	0.0152319
806.467	0.0152485
806.545	0.0152472
806.623	0.0152715
806.701	0.0152522
806.780	0.0151962
806.858	0.0153109
806.936	0.0152518
807.014	0.0154126
807.092	0.0153391
807.170	0.0153225
807.248	0.0154076
807.326	0.0152925
807.405	0.0155322
807.483	0.0154745
807.561	0.0155576
807.639	0.0155692
807.717	0.0156346
807.795	0.0155330
807.873	0.0158057
807.951	0.0157590
808.030	0.0158862
808.108	0.0159935
808.186	0.0160577
808.264	0.0160645
808.342	0.0161983
808.420	0.0160635
808.498	0.0161407
808.576	0.0161662
808.655	0.0161978
808.733	0.0161680
808.811	0.0162772
808.889	0.0160572
808.967	0.0160300
809.045	0.0161156
809.123	0.0159822
809.201	0.0159053
809.280	0.0158044
809.358	0.0156824
809.436	0.0155180
809.514	0.0154255
809.592	0.0154177
809.670	0.0152418
809.748	0.0153877
809.826	0.0153584
809.905	0.0150983
809.983	0.0151601
810.061	0.0152256
810.139	0.0151227
810.217	0.0153206
810.295	0.0153538
810.373	0.0151973
810.451	0.0153510
810.530	0.0155166
810.608	0.0155971
810.686	0.0155410
810.764	0.0157093
810.842	0.0159560
810.920	0.0157564
810.998	0.0160926
811.076	0.0160571
811.155	0.0160746
811.233	0.0161631
811.311	0.0160734
811.389	0.0160237
811.467	0.0162171
811.545	0.0162710
811.623	0.0159802
811.701	0.0158790
811.780	0.0159394
811.858	0.0158381
811.936	0.0158263
812.014	0.0156968
812.092	0.0155169
812.170	0.0157059
812.248	0.0156458
812.326	0.0156040
812.405	0.0157401
812.483	0.0156796
812.561	0.0155483
812.639	0.0156165
812.717	0.0158187
812.795	0.0158543
812.873	0.0158624
812.951	0.0160506
813.030	0.0160760
813.108	0.0160760
813.186	0.0160545
813.264	0.0159579
813.342	0.0160121
813.420	0.0160486
813.498	0.0160632
813.576	0.0161595
813.655	0.0158954
813.733	0.0159335
813.811	0.0158429
813.889	0.0156791
813.967	0.0155472
814.045	0.0155333
814.123	0.0155363
814.201	0.0154849
814.280	0.0154564
814.358	0.0153192
814.436	0.0152799
814.514	0.0154447
814.592	0.0153500
814.670	0.0153275
814.748	0.0152660
814.826	0.0154002
814.905	0.0153851
814.983	0.0154850
815.061	0.0154723
815.139	0.0155680
815.217	0.0155405
815.295	0.0154606
815.373	0.0155576
815.451	0.0154141
815.530	0.0155538
815.608	0.0156733
815.686	0.0155476
815.764	0.0158040
815.842	0.0158588
815.920	0.0157652
815.998	0.0157941
816.076	0.0156870
816.155	0.0158888
816.233	0.0158667
816.311	0.0159078
816.389	0.0161137
816.467	0.0158765
816.545	0.0159955
816.623	0.0161013
816.701	0.0161312
816.780	0.0161027
816.858	0.0160527
816.936	0.0160454
817.014	0.0160044
817.092	0.0159308
817.170	0.0158434
817.248	0.0158722
817.326	0.0157251
817.405	0.0157027
817.483	0.0155567
817.561	0.0154412
817.639	0.0153484
817.717	0.0152859
817.795	0.0150475
817.873	0.0148318
817.951	0.0148683
818.030	0.0149068
818.108	0.0146877
818.186	0.0146761
818.264	0.0147195
818.342	0.0146673
818.420	0.0149024
818.498	0.0148071
818.576	0.0149306
818.655	0.0148056
818.733	0.0149599
818.811	0.0151221
818.889	0.0150869
818.967	0.0151609
819.045	0.0154041
819.123	0.0154365
819.201	0.0154726
819.280	0.0155834
819.358	0.0156950
819.436	0.0156622
819.514	0.0159240
819.592	0.0159566
819.670	0.0160103
819.748	0.0158915
819.826	0.0160699
819.905	0.0160030
819.983	0.0158167
820.061	0.0158830
820.139	0.0158504
820.217	0.0158393
820.295	0.0159556
820.373	0.0158352
820.451	0.0157508
820.530	0.0157383
820.608	0.0159163
820.686	0.0157808
820.764	0.0158195
820.842	0.0157317
820.920	0.0157346
820.998	0.0158944
821.076	0.0157892
821.155	0.0157777
821.233	0.0159547
821.311	0.0158451
821.389	0.0159795
821.467	0.0159194
821.545	0.0160821
821.623	0.0160360
821.701	0.0160236
821.780	0.0160118
821.858	0.0158061
821.936	0.0157301
822.014	0.0157756
822.092	0.0156593
822.170	0.0156944
822.248	0.0157172
822.326	0.0155434
822.405	0.0155892
822.483	0.0154385
822.561	0.0154993
822.639	0.0152673
822.717	0.0152639
822.795	0.0152122
822.873	0.0152224
822.951	0.0153309
823.030	0.0152814
823.108	0.0152848
823.186	0.0154067
823.264	0.0154439
823.342	0.0152640
823.420	0.0153635
823.498	0.0154509
823.576	0.0155097
823.655	0.0153947
823.733	0.0154185
823.811	0.0156649
823.889	0.0158081
823.967	0.0157139
824.045	0.0156689
824.123	0.0156901
824.201	0.0157247
824.280	0.0157351
824.358	0.0157703
824.436	0.0158820
824.514	0.0159176
824.592	0.0158462
824.670	0.0158464
824.748	0.0158472
824.826	0.0159566
824.905	0.0157188
824.983	0.0158388
825.061	0.0158213
825.139	0.0157382
825.217	0.0158752
825.295	0.0157620
825.373	0.0157221
825.451	0.0156344
825.530	0.0155554
825.608	0.0154369
825.686	0.0155241
825.764	0.0154269
825.842	0.0152327
825.920	0.0150604
825.998	0.0151904
826.076	0.0149551
826.155	0.0149250
826.233	0.0148021
826.311	0.0149663
826.389	0.0149663
826.467	0.0148483
826.545	0.0148795
826.623	0.0149082
826.701	0.0149964
826.780	0.0150850
826.858	0.0151419
826.936	0.0152979
827.014	0.0152942
827.092	0.0152553
827.170	0.0153950
827.248	0.0156026
827.326	0.0156868
827.405	0.0157198
827.483	0.0156991
827.561	0.0159570
827.639	0.0160674
827.717	0.0160834
827.795	0.0160829
827.873	0.0162284
827.951	0.0163280
828.030	0.0162598
828.108	0.0161124
828.186	0.0161462
828.264	0.0161517
828.342	0.0161153
828.420	0.0162331
828.498	0.0161083
828.576	0.0162221
828.655	0.0160756
828.733	0.0160144
828.811	0.0159482
828.889	0.0159332
828.967	0.0160313
829.045	0.0159120
829.123	0.0159354
829.201	0.0159480
829.280	0.0159008
829.358	0.0158945
829.436	0.0159688
829.514	0.0158434
829.592	0.0158293
829.670	0.0159247
829.748	0.0159614
829.826	0.0159545
829.905	0.0159538
829.983	0.0158611
830.061	0.0157995
830.139	0.0158102
830.217	0.0158055
830.295	0.0156409
830.373	0.0155362
830.451	0.0156247
830.530	0.0155516
830.608	0.0154743
830.686	0.0154661
830.764	0.0154260
830.842	0.0154501
830.920	0.0152283
830.998	0.0153856
831.076	0.0154528
831.155	0.0153504
831.233	0.0153045
831.311	0.0152814
831.389	0.0153351
831.467	0.0153729
831.545	0.0153947
831.623	0.0154391
831.701	0.0153952
831.780	0.0154350
831.858	0.0155647
831.936	0.0156285
832.014	0.0155485
832.092	0.0156921
832.170	0.0156178
832.248	0.0156207
832.326	0.0156975
832.405	0.0156437
832.483	0.0156230
832.561	0.0158051
832.639	0.0157718
832.717	0.0158887
832.795	0.0157196
832.873	0.0158364
832.951	0.0157030
833.030	0.0157939
833.108	0.0159601
833.186	0.0158093
833.264	0.0158025
833.342	0.0158458
833.420	0.0159201
833.498	0.0157119
833.576	0.0156799
833.655	0.0155792
833.733	0.0156534
833.811	0.0156512
833.889	0.0156085
833.967	0.0155998
834.045	0.0154985
834.123	0.0155012
834.201	0.0154501
834.280	0.0154543
834.358	0.0152425
834.436	0.0151775
834.514	0.0151576
834.592	0.0151169
834.670	0.0149807
834.748	0.0150795
834.826	0.0151462
834.905	0.0151880
834.983	0.0152802
835.061	0.0152158
835.139	0.0152321
835.217	0.0152300
835.295	0.0152979
835.373	0.0154581
835.451	0.0155483
835.530	0.0157237
835.608	0.0157717
835.686	0.0157227
835.764	0.0158894
835.842	0.0158737
835.920	0.0159816
835.998	0.0160551
836.076	0.0160719
836.155	0.0160828
836.233	0.0161114
836.311	0.0161943
836.389	0.0161990
836.467	0.0161749
836.545	0.0161576
836.623	0.0161912
836.701	0.0160922
836.780	0.0159699
836.858	0.0159883
836.936	0.0159659
837.014	0.0159275
837.092	0.0158638
837.170	0.0158001
837.248	0.0158140
837.326	0.0157428
837.405	0.0156750
837.483	0.0156113
837.561	0.0156998
837.639	0.0156004
837.717	0.0157208
837.795	0.0156612
837.873	0.0155844
837.951	0.0155470
838.030	0.0155648
838.108	0.0154118
838.186	0.0154576
838.264	0.0155578
838.342	0.0156679
838.420	0.0155460
838.498	0.0155709
838.576	0.0154874
838.655	0.0154260
838.733	0.0154947
838.811	0.0154784
838.889	0.0154962
838.967	0.0153207
839.045	0.0153754
839.123	0.0152928
839.201	0.0153428
839.280	0.0153514
839.358	0.0153395
839.436	0.0155099
839.514	0.0153861
839.592	0.0153849
839.670	0.0155611
839.748	0.0155382
839.826	0.0156173
839.905	0.0157406
839.983	0.0157515
840.061	0.0155965
840.139	0.0157050
840.217	0.0158154
840.295	0.0158540
840.373	0.0158254
840.451	0.0158025
840.530	0.0157742
840.608	0.0157851
840.686	0.0157725
840.764	0.0158250
840.842	0.0157896
840.920	0.0157704
840.998	0.0158730
841.076	0.0156425
841.155	0.0157606
841.233	0.0157389
841.311	0.0156140
841.389	0.0157041
841.467	0.0157282
841.545	0.0156271
841.623	0.0156158
841.701	0.0157706
841.780	0.0157062
841.858	0.0156696
841.936	0.0155214
842.014	0.0154092
842.092	0.0155888
842.170	0.0154578
842.248	0.0154860
842.326	0.0154557
842.405	0.0152854
842.483	0.0153166
842.561	0.0152105
842.639	0.0152596
842.717	0.0151900
842.795	0.0151805
842.873	0.0150414
842.951	0.0152006
843.030	0.0151011
843.108	0.0149999
843.186	0.0151125
843.264	0.0153522
843.342	0.0151926
843.420	0.0152478
843.498	0.0152826
843.576	0.0153094
843.655	0.0153719
843.733	0.0154570
843.811	0.0155790
843.889	0.0156409
843.967	0.0157133
844.045	0.0158350
844.123	0.0157071
844.201	0.0158096
844.280	0.0159138
844.358	0.0158158
844.436	0.0160460
844.514	0.0160265
844.592	0.0160647
844.670	0.0160567
844.748	0.0160747
844.826	0.0160880
844.905	0.0162154
844.983	0.0160342
845.061	0.0160696
845.139	0.0159935
845.217	0.0159043
845.295	0.0160098
845.373	0.0158208
845.451	0.0158552
845.530	0.0158400
845.608	0.0156384
845.686	0.0157298
845.764	0.0157504
845.842	0.0155920
845.920	0.0156792
845.998	0.0155656
846.076	0.0155271
846.155	0.0153403
846.233	0.0152598
846.311	0.0154279
846.389	0.0154025
846.467	0.0154999
846.545	0.0153579
846.623	0.0153448
846.701	0.0154333
846.780	0.0154048
846.858	0.0154168
846.936	0.0152882
847.014	0.0152708
847.092	0.0155003
847.170	0.0154373
847.248	0.0152924
847.326	0.0153474
847.405	0.0155370
847.483	0.0154182
847.561	0.0154588
847.639	0.0154479
847.717	0.0155308
847.795	0.0154612
847.873	0.0156129
847.951	0.0156193
848.030	0.0155784
848.108	0.0156256
848.186	0.0155280
848.264	0.0154912
848.342	0.0156510
848.420	0.0155862
848.498	0.0156047
848.576	0.0156033
848.655	0.0156577
848.733	0.0155325
848.811	0.0156339
848.889	0.0154820
848.967	0.0155698
849.045	0.0155762
849.123	0.0156142
849.201	0.0155581
849.280	0.0156555
849.358	0.0156194
849.436	0.0154642
849.514	0.0156551
849.592	0.0155660
849.670	0.0156381
849.748	0.0156016
849.826	0.0156428
849.905	0.0156709
849.983	0.0156165
850.061	0.0155826
850.139	0.0156232
850.217	0.0155421
850.295	0.0155888
850.373	0.0155857
850.451	0.0156812
850.530	0.0154939
850.608	0.0156545
850.686	0.0156181
850.764	0.0153589
850.842	0.0155061
850.920	0.0153245
850.998	0.0152943
851.076	0.0154180
851.155	0.0152642
851.233	0.0152108
851.311	0.0153353
851.389	0.0153696
851.467	0.0153890
851.545	0.0154839
851.623	0.0154324
851.701	0.0153869
851.780	0.0157326
851.858	0.0157320
851.936	0.0155632
852.014	0.0156985
852.092	0.0158307
852.170	0.0157361
852.248	0.0159758
852.326	0.0159651
852.405	0.0160331
852.483	0.0160947
852.561	0.0161345
852.639	0.0161850
852.717	0.0161330
852.795	0.0160937
852.873	0.0161349
852.951	0.0160871
853.030	0.0161411
853.108	0.0161710
853.186	0.0161366
853.264	0.0160931
853.342	0.0160310
853.420	0.0159093
853.498	0.0160226
853.576	0.0158080
853.655	0.0157507
853.733	0.0157345
853.811	0.0158829
853.889	0.0157059
853.967	0.0155824
854.045	0.0156318
854.123	0.0156118
854.201	0.0155801
854.280	0.0155404
854.358	0.0156472
854.436	0.0154898
854.514	0.0156023
854.592	0.0154924
854.670	0.0154075
854.748	0.0155154
854.826	0.0156136
854.905	0.0156036
854.983	0.0156445
855.061	0.0157430
855.139	0.0156028
855.217	0.0156731
855.295	0.0157436
855.373	0.0157900
855.451	0.0156419
855.530	0.0157430
855.608	0.0157837
855.686	0.0157394
855.764	0.0159368
855.842	0.0158749
855.920	0.0158967
855.998	0.0158276
856.076	0.0158438
856.155	0.0157617
856.233	0.0157027
856.311	0.0158293
856.389	0.0159320
856.467	0.0158965
856.545	0.0159525
856.623	0.0159776
856.701	0.0158309
856.780	0.0158578
856.858	0.0158299
856.936	0.0158479
857.014	0.0159143
857.092	0.0158936
857.170	0.0157116
857.248	0.0157854
857.326	0.0157212
857.405	0.0157016
857.483	0.0155714
857.561	0.0157561
857.639	0.0156982
857.717	0.0156963
857.795	0.0156672
857.873	0.0155529
857.951	0.0154669
858.030	0.0156583
858.108	0.0156782
858.186	0.0156211
858.264	0.0155479
858.342	0.0156338
858.420	0.0156250
858.498	0.0155541
858.576	0.0155032
858.655	0.0156217
858.733	0.0154625
858.811	0.0153876
858.889	0.0155312
858.967	0.0155047
859.045	0.0154384
859.123	0.0153522
859.201	0.0154211
859.280	0.0154960
859.358	0.0154488
859.436	0.0154076
859.514	0.0153936
859.592	0.0154380
859.670	0.0153434
859.748	0.0153928
859.826	0.0153723
859.905	0.0155882
859.983	0.0153750
860.061	0.0154370
860.139	0.0155195
860.217	0.0156978
860.295	0.0155575
860.373	0.0156030
860.451	0.0156140
860.530	0.0157494
860.608	0.0157650
860.686	0.0159589
860.764	0.0157685
860.842	0.0158345
860.920	0.0157514
860.998	0.0159405
861.076	0.0158149
861.155	0.0159217
861.233	0.0158367
861.311	0.0159013
861.389	0.0157410
861.467	0.0157428
861.545	0.0158113
861.623	0.0158887
861.701	0.0157505
861.780	0.0156113
861.858	0.0156514
861.936	0.0157257
862.014	0.0155789
862.092	0.0155647
862.170	0.0155137
862.248	0.0155290
862.326	0.0154969
862.405	0.0154234
862.483	0.0154469
862.561	0.0154448
862.639	0.0154176
862.717	0.0153081
862.795	0.0154168
862.873	0.0153669
862.951	0.0154875
863.030	0.0154754
863.108	0.0155179
863.186	0.0155296
863.264	0.0154987
863.342	0.0154961
863.420	0.0155879
863.498	0.0155847
863.576	0.0156570
863.655	0.0156166
863.733	0.0157173
863.811	0.0157037
863.889	0.0155676
863.967	0.0156998
864.045	0.0157569
864.123	0.0156484
864.201	0.0156942
864.280	0.0157315
864.358	0.0156650
864.436	0.0156734
864.514	0.0158279
864.592	0.0157819
864.670	0.0156595
864.748	0.0158128
864.826	0.0156950
864.905	0.0157059
864.983	0.0156799
865.061	0.0157158
865.139	0.0156020
865.217	0.0154635
865.295	0.0155992
865.373	0.0155307
865.451	0.0154154
865.530	0.0154601
865.608	0.0154055
865.686	0.0154259
865.764	0.0154539
865.842	0.0154244
865.920	0.0154471
865.998	0.0151664
866.076	0.0151851
866.155	0.0154154
866.233	0.0154333
866.311	0.0154087
866.389	0.0152935
866.467	0.0152966
866.545	0.0155341
866.623	0.0156197
866.701	0.0155032
866.780	0.0154154
866.858	0.0154301
866.936	0.0154478
867.014	0.0156609
867.092	0.0154949
867.170	0.0156405
867.248	0.0155695
867.326	0.0157118
867.405	0.0154787
867.483	0.0156709
867.561	0.0156007
867.639	0.0155210
867.717	0.0157354
867.795	0.0156053
867.873	0.0156448
867.951	0.0157266
868.030	0.0157368
868.108	0.0154584
868.186	0.0156710
868.264	0.0157793
868.342	0.0156851
868.420	0.0157786
868.498	0.0158212
868.576	0.0157674
868.655	0.0158335
868.733	0.0158653
868.811	0.0157491
868.889	0.0157293
868.967	0.0157246
869.045	0.0157317
869.123	0.0159228
869.201	0.0157670
869.280	0.0157787
869.358	0.0158461
869.436	0.0156830
869.514	0.0156995
869.592	0.0157323
869.670	0.0159109
869.748	0.0158083
869.826	0.0157309
869.905	0.0155933
869.983	0.0158214
870.061	0.0155219
870.139	0.0155318
870.217	0.0156229
870.295	0.0156015
870.373	0.0154662
870.451	0.0154182
870.530	0.0154119
870.608	0.0153625
870.686	0.0154957
870.764	0.0154670
870.842	0.0153241
870.920	0.0153417
870.998	0.0152781
871.076	0.0154030
871.155	0.0154678
871.233	0.0153223
871.311	0.0153250
871.389	0.0153809
871.467	0.0155176
871.545	0.0154662
871.623	0.0154044
871.701	0.0155955
871.780	0.0157077
871.858	0.0155672
871.936	0.0157158
872.014	0.0156393
872.092	0.0156963
872.170	0.0157263
872.248	0.0157151
872.326	0.0157039
872.405	0.0157512
872.483	0.0158154
872.561	0.0158174
872.639	0.0156939
872.717	0.0156676
872.795	0.0157265
872.873	0.0155870
872.951	0.0157025
873.030	0.0156605
873.108	0.0156091
873.186	0.0156567
873.264	0.0156046
873.342	0.0156400
873.420	0.0155738
873.498	0.0155269
873.576	0.0155094
873.655	0.0154742
873.733	0.0153040
873.811	0.0154117
873.889	0.0154237
873.967	0.0152071
874.045	0.0152171
874.123	0.0153439
874.201	0.0153091
874.280	0.0152594
874.358	0.0153026
874.436	0.0153344
874.514	0.0152512
874.592	0.0151912
874.670	0.0153547
874.748	0.0154104
874.826	0.0154002
874.905	0.0154705
874.983	0.0156522
875.061	0.0155560
875.139	0.0156377
875.217	0.0155956
875.295	0.0156333
875.373	0.0157522
875.451	0.0157104
875.530	0.0157994
875.608	0.0158874
875.686	0.0157775
875.764	0.0159183
875.842	0.0158997
875.920	0.0157114
875.998	0.0157236
876.076	0.0159030
876.155	0.0157969
876.233	0.0158900
876.311	0.0159926
876.389	0.0157716
876.467	0.0157364
876.545	0.0159557
876.623	0.0159368
876.701	0.0158289
876.780	0.0157568
876.858	0.0158973
876.936	0.0158959
877.014	0.0157442
877.092	0.0157124
877.170	0.0158526
877.248	0.0158315
877.326	0.0158461
877.405	0.0156944
877.483	0.0155557
877.561	0.0156969
877.639	0.0157373
877.717	0.0157634
877.795	0.0156619
877.873	0.0155257
877.951	0.0156345
878.030	0.0156686
878.108	0.0157227
878.186	0.0156084
878.264	0.0157626
878.342	0.0156095
878.420	0.0155741
878.498	0.0156039
878.576	0.0156402
878.655	0.0157269
878.733	0.0156420
878.811	0.0155894
878.889	0.0156137
878.967	0.0156760
879.045	0.0155617
879.123	0.0156431
879.201	0.0156705
879.280	0.0157534
879.358	0.0157063
879.436	0.0155795
879.514	0.0157699
879.592	0.0157955
879.670	0.0157374
879.748	0.0158324
879.826	0.0157428
879.905	0.0157632
879.983	0.0156454
880.061	0.0157507
880.139	0.0157710
880.217	0.0158898
880.295	0.0157953
880.373	0.0158613
880.451	0.0157693
880.530	0.0159241
880.608	0.0156657
880.686	0.0157246
880.764	0.0156940
880.842	0.0159064
880.920	0.0158034
880.998	0.0156994
881.076	0.0157053
881.155	0.0155560
881.233	0.0156954
881.311	0.0155875
881.389	0.0156448
881.467	0.0155752
881.545	0.0154282
881.623	0.0155752
881.701	0.0155511
881.780	0.0154131
881.858	0.0153171
881.936	0.0153280
882.014	0.0153307
882.092	0.0154424
882.170	0.0154286
882.248	0.0154057
882.326	0.0153059
882.405	0.0153570
882.483	0.0154806
882.561	0.0153104
882.639	0.0154061
882.717	0.0154726
882.795	0.0153721
882.873	0.0156225
882.951	0.0154324
883.030	0.0156194
883.108	0.0156291
883.186	0.0157333
883.264	0.0157282
883.342	0.0156430
883.420	0.0156946
883.498	0.0157157
883.576	0.0158034
883.655	0.0158324
883.733	0.0160197
883.811	0.0158157
883.889	0.0158800
883.967	0.0159822
884.045	0.0158130
884.123	0.0160141
884.201	0.0159978
884.280	0.0159348
884.358	0.0157869
884.436	0.0157597
884.514	0.0157072
884.592	0.0157761
884.670	0.0156330
884.748	0.0157388
884.826	0.0156893
884.905	0.0156293
884.983	0.0156239
885.061	0.0156701
885.139	0.0155241
885.217	0.0155425
885.295	0.0157032
885.373	0.0156087
885.451	0.0156167
885.530	0.0157847
885.608	0.0157558
885.686	0.0155845
885.764	0.0157144
885.842	0.0157204
885.920	0.0155338
885.998	0.0157685
886.076	0.0157941
886.155	0.0157562
886.233	0.0158585
886.311	0.0157693
886.389	0.0157374
886.467	0.0157020
886.545	0.0157441
886.623	0.0156374
886.701	0.0157623
886.780	0.0158678
886.858	0.0157410
886.936	0.0156919
887.014	0.0157477
887.092	0.0155802
887.170	0.0156001
887.248	0.0156377
887.326	0.0156337
887.405	0.0157695
887.483	0.0156020
887.561	0.0156292
887.639	0.0155846
887.717	0.0157159
887.795	0.0156429
887.873	0.0156258
887.951	0.0156924
888.030	0.0156331
888.108	0.0157361
888.186	0.0158573
888.264	0.0159905
888.342	0.0158102
888.420	0.0157641
888.498	0.0158873
888.576	0.0159985
888.655	0.0160350
888.733	0.0159650
888.811	0.0159045
888.889	0.0159533
888.967	0.0160307
889.045	0.0159871
889.123	0.0159583
889.201	0.0158221
889.280	0.0158264
889.358	0.0156969
889.436	0.0158418
889.514	0.0156585
889.592	0.0156829
889.670	0.0155714
889.748	0.0155647
889.826	0.0154076
889.905	0.0153798
889.983	0.0154480
890.061	0.0154840
890.139	0.0153304
890.217	0.0153156
890.295	0.0154618
890.373	0.0153763
890.451	0.0153305
890.530	0.0153482
890.608	0.0152801
890.686	0.0154348
890.764	0.0155222
890.842	0.0154106
890.920	0.0154115
890.998	0.0154440
891.076	0.0154578
891.155	0.0155318
891.233	0.0155972
891.311	0.0155096
891.389	0.0156486
891.467	0.0156912
891.545	0.0156019
891.623	0.0156699
891.701	0.0156960
891.780	0.0157302
891.858	0.0156168
891.936	0.0157466
892.014	0.0158897
892.092	0.0159119
892.170	0.0158559
892.248	0.0157458
892.326	0.0156744
892.405	0.0156808
892.483	0.0157214
892.561	0.0158234
892.639	0.0159528
892.717	0.0158116
892.795	0.0157227
892.873	0.0158031
892.951	0.0156775
893.030	0.0158784
893.108	0.0157162
893.186	0.0157970
893.264	0.0159058
893.342	0.0157268
893.420	0.0157816
893.498	0.0156401
893.576	0.0158878
893.655	0.0158067
893.733	0.0156745
893.811	0.0155975
893.889	0.0156096
893.967	0.0155407
894.045	0.0154855
894.123	0.0154549
894.201	0.0155539
894.280	0.0154849
894.358	0.0155131
894.436	0.0154393
894.514	0.0153104
894.592	0.0154578
894.670	0.0155235
894.748	0.0154688
894.826	0.0154736
894.905	0.0154513
894.983	0.0154549
895.061	0.0154317
895.139	0.0153683
895.217	0.0154995
895.295	0.0154522
895.373	0.0156399
895.451	0.0156091
895.530	0.0156673
895.608	0.0156651
895.686	0.0156077
895.764	0.0156078
895.842	0.0156879
895.920	0.0157628
895.998	0.0156786
896.076	0.0157914
896.155	0.0157202
896.233	0.0157340
896.311	0.0156937
896.389	0.0156179
896.467	0.0157938
896.545	0.0157547
896.623	0.0156273
896.701	0.0156323
896.780	0.0155822
896.858	0.0155492
896.936	0.0155245
897.014	0.0156924
897.092	0.0155960
897.170	0.0155352
897.248	0.0156060
897.326	0.0153632
897.405	0.0153652
897.483	0.0152992
897.561	0.0153363
897.639	0.0153166
897.717	0.0153624
897.795	0.0152898
897.873	0.0153549
897.951	0.0153745
898.030	0.0153562
898.108	0.0152983
898.186	0.0152283
898.264	0.0153780
898.342	0.0153432
898.420	0.0154343
898.498	0.0151961
898.576	0.0154150
898.655	0.0153306
898.733	0.0154970
898.811	0.0152501
898.889	0.0153507
898.967	0.0152457
899.045	0.0154066
899.123	0.0155795
899.201	0.0153883
899.280	0.0155029
899.358	0.0155481
899.436	0.0154373
899.514	0.0156292
899.592	0.0156268
899.670	0.0156696
899.748	0.0157978
899.826	0.0157197
899.905	0.0156651
899.983	0.0157329
900.061	0.0158033
900.139	0.0157815
900.217	0.0157374
900.295	0.0158706
900.373	0.0158967
900.451	0.0158813
900.530	0.0158688
900.608	0.0158506
900.686	0.0158174
900.764	0.0157957
900.842	0.0157437
900.920	0.0158162
900.998	0.0158057
901.076	0.0158384
901.155	0.0157167
901.233	0.0156941
901.311	0.0155146
901.389	0.0156550
901.467	0.0157532
901.545	0.0157891
901.623	0.0156978
901.701	0.0156020
901.780	0.0155181
901.858	0.0156332
901.936	0.0156139
902.014	0.0155581
902.092	0.0154967
902.170	0.0155535
902.248	0.0154178
902.326	0.0154372
902.405	0.0154331
902.483	0.0155917
902.561	0.0154915
902.639	0.0155877
902.717	0.0154453
902.795	0.0155606
902.873	0.0155534
902.951	0.0155691
903.030	0.0155855
903.108	0.0156000
903.186	0.0155811
903.264	0.0155616
903.342	0.0155498
903.420	0.0155887
903.498	0.0156152
903.576	0.0155707
903.655	0.0157572
903.733	0.0156931
903.811	0.0157388
903.889	0.0156442
903.967	0.0157303
904.045	0.0158759
904.123	0.0159158
904.201	0.0158477
904.280	0.0157999
904.358	0.0157909
904.436	0.0157886
904.514	0.0158127
904.592	0.0158021
904.670	0.0157361
904.748	0.0157031
904.826	0.0156897
904.905	0.0158434
904.983	0.0158714
905.061	0.0156731
905.139	0.0157939
905.217	0.0157690
905.295	0.0158317
905.373	0.0158686
905.451	0.0157743
905.530	0.0156582
905.608	0.0157145
905.686	0.0155858
905.764	0.0155391
905.842	0.0155915
905.920	0.0156224
905.998	0.0157092
906.076	0.0155849
906.155	0.0155153
906.233	0.0156617
906.311	0.0156223
906.389	0.0155312
906.467	0.0155475
906.545	0.0154697
906.623	0.0155096
906.701	0.0155800
906.780	0.0156345
906.858	0.0155855
906.936	0.0154652
907.014	0.0155035
907.092	0.0156528
907.170	0.0155650
907.248	0.0154922
907.326	0.0156258
907.405	0.0155815
907.483	0.0158372
907.561	0.0157027
907.639	0.0157350
907.717	0.0156813
907.795	0.0155987
907.873	0.0157109
907.951	0.0156699
908.030	0.0156985
908.108	0.0156483
908.186	0.0157935
908.264	0.0158388
908.342	0.0158701
908.420	0.0158208
908.498	0.0158495
908.576	0.0157198
908.655	0.0159219
908.733	0.0158604
908.811	0.0158722
908.889	0.0158247
908.967	0.0157999
909.045	0.0157487
909.123	0.0160461
909.201	0.0157342
909.280	0.0157094
909.358	0.0159232
909.436	0.0157862
909.514	0.0157590
909.592	0.0157849
909.670	0.0158124
909.748	0.0157774
909.826	0.0157208
909.905	0.0158729
909.983	0.0157169
910.061	0.0156950
910.139	0.0157017
910.217	0.0156805
910.295	0.0156245
910.373	0.0157183
910.451	0.0156435
910.530	0.0155380
910.608	0.0155693
910.686	0.0156650
910.764	0.0156326
910.842	0.0155854
910.920	0.0154552
910.998	0.0155960
911.076	0.0156494
911.155	0.0155251
911.233	0.0155653
911.311	0.0156752
911.389	0.0156479
911.467	0.0156465
911.545	0.0157375
911.623	0.0157222
911.701	0.0155620
911.780	0.0155997
911.858	0.0156792
911.936	0.0156462
912.014	0.0156165
912.092	0.0157880
912.170	0.0157703
912.248	0.0157303
912.326	0.0156668
912.405	0.0157555
912.483	0.0157523
912.561	0.0156555
912.639	0.0157417
912.717	0.0157962
912.795	0.0158248
912.873	0.0157085
912.951	0.0155569
913.030	0.0157327
913.108	0.0157662
913.186	0.0158025
913.264	0.0157613
913.342	0.0155844
913.420	0.0156171
913.498	0.0157313
913.576	0.0156024
913.655	0.0156530
913.733	0.0156400
913.811	0.0156181
913.889	0.0156252
913.967	0.0155647
914.045	0.0156335
914.123	0.0155739
914.201	0.0156519
914.280	0.0157093
914.358	0.0154324
914.436	0.0155486
914.514	0.0156861
914.592	0.0155552
914.670	0.0155653
914.748	0.0155553
914.826	0.0155832
914.905	0.0154993
914.983	0.0155444
915.061	0.0155480
915.139	0.0155279
915.217	0.0155773
915.295	0.0156792
915.373	0.0155806
915.451	0.0154292
915.530	0.0155813
915.608	0.0157056
915.686	0.0156100
915.764	0.0156878
915.842	0.0156123
915.920	0.0155465
915.998	0.0156694
916.076	0.0156082
916.155	0.0155927
916.233	0.0155328
916.311	0.0155154
916.389	0.0155446
916.467	0.0156454
916.545	0.0156018
916.623	0.0155711
916.701	0.0156068
916.780	0.0155981
916.858	0.0154330
916.936	0.0155517
917.014	0.0157705
917.092	0.0157924
917.170	0.0157928
917.248	0.0158555
917.326	0.0159159
917.405	0.0159563
917.483	0.0159898
917.561	0.0157807
917.639	0.0157989
917.717	0.0158856
917.795	0.0157124
917.873	0.0158019
917.951	0.0157085
918.030	0.0157779
918.108	0.0158385
918.186	0.0154882
918.264	0.0154987
918.342	0.0156170
918.420	0.0155949
918.498	0.0155817
918.576	0.0156441
918.655	0.0155117
918.733	0.0156239
918.811	0.0155867
918.889	0.0155315
918.967	0.0155170
919.045	0.0155199
919.123	0.0154758
919.201	0.0155385
919.280	0.0155887
919.358	0.0153617
919.436	0.0154995
919.514	0.0154708
919.592	0.0155188
919.670	0.0153945
919.748	0.0154819
919.826	0.0154637
919.905	0.0154064
919.983	0.0155457
920.061	0.0154331
920.139	0.0154797
920.217	0.0155872
920.295	0.0155078
920.373	0.0154575
920.451	0.0154878
920.530	0.0157037
920.608	0.0157138
920.686	0.0156557
920.764	0.0157410
920.842	0.0156589
920.920	0.0156108
920.998	0.0156513
921.076	0.0156896
921.155	0.0156393
921.233	0.0157841
921.311	0.0157192
921.389	0.0157630
921.467	0.0157498
921.545	0.0156172
921.623	0.0156967
921.701	0.0158238
921.780	0.0157695
921.858	0.0156574
921.936	0.0157219
922.014	0.0156323
922.092	0.0156989
922.170	0.0156609
922.248	0.0156485
922.326	0.0157223
922.405	0.0156380
922.483	0.0157652
922.561	0.0156111
922.639	0.0154849
922.717	0.0154903
922.795	0.0155753
922.873	0.0154414
922.951	0.0154009
923.030	0.0154930
923.108	0.0154927
923.186	0.0154948
923.264	0.0153762
923.342	0.0153387
923.420	0.0154208
923.498	0.0153580
923.576	0.0153717
923.655	0.0153471
923.733	0.0153254
923.811	0.0153157
923.889	0.0153249
923.967	0.0154158
924.045	0.0155782
924.123	0.0155229
924.201	0.0154230
924.280	0.0154645
924.358	0.0155299
924.436	0.0154440
924.514	0.0155849
924.592	0.0156337
924.670	0.0155670
924.748	0.0157387
924.826	0.0155774
924.905	0.0156403
924.983	0.0157099
925.061	0.0157932
925.139	0.0157136
925.217	0.0157365
925.295	0.0156128
925.373	0.0156232
925.451	0.0157986
925.530	0.0157497
925.608	0.0157664
925.686	0.0156248
925.764	0.0157476
925.842	0.0156393
925.920	0.0158002
925.998	0.0156291
926.076	0.0155475
926.155	0.0154221
926.233	0.0155296
926.311	0.0156388
926.389	0.0155555
926.467	0.0154012
926.545	0.0154653
926.623	0.0154214
926.701	0.0153719
926.780	0.0153825
926.858	0.0154570
926.936	0.0153522
927.014	0.0154160
927.092	0.0153525
927.170	0.0154314
927.248	0.0154092
927.326	0.0153722
927.405	0.0153624
927.483	0.0153629
927.561	0.0154102
927.639	0.0153392
927.717	0.0154359
927.795	0.0154209
927.873	0.0153513
927.951	0.0154427
928.030	0.0155375
928.108	0.0154864
928.186	0.0154154
928.264	0.0154765
928.342	0.0154921
928.420	0.0155807
928.498	0.0155743
928.576	0.0154461
928.655	0.0156061
928.733	0.0156523
928.811	0.0155559
928.889	0.0156834
928.967	0.0156951
929.045	0.0156355
929.123	0.0156416
929.201	0.0156810
929.280	0.0158004
929.358	0.0157641
929.436	0.0157241
929.514	0.0156979
929.592	0.0157768
929.670	0.0157682
929.748	0.0156149
929.826	0.0156527
929.905	0.0157435
929.983	0.0156177
930.061	0.0157619
930.139	0.0156342
930.217	0.0156104
930.295	0.0154889
930.373	0.0156587
930.451	0.0156055
930.530	0.0154768
930.608	0.0154132
930.686	0.0154153
930.764	0.0155022
930.842	0.0155115
930.920	0.0153720
930.998	0.0154433
931.076	0.0153273
931.155	0.0153670
931.233	0.0154975
931.311	0.0153563
931.389	0.0155600
931.467	0.0155553
931.545	0.0155912
931.623	0.0154879
931.701	0.0154623
931.780	0.0155527
931.858	0.0155691
931.936	0.0155271
932.014	0.0155482
932.092	0.0156495
932.170	0.0156406
932.248	0.0155846
932.326	0.0156318
932.405	0.0156470
932.483	0.0157412
932.561	0.0157391
932.639	0.0158224
932.717	0.0158180
932.795	0.0157895
932.873	0.0157571
932.951	0.0156853
933.030	0.0157474
933.108	0.0158559
933.186	0.0158745
933.264	0.0157056
933.342	0.0158263
933.420	0.0157934
933.498	0.0158047
933.576	0.0157414
933.655	0.0157435
933.733	0.0158604
933.811	0.0156521
933.889	0.0156654
933.967	0.0156866
934.045	0.0155878
934.123	0.0157351
934.201	0.0156801
934.280	0.0156339
934.358	0.0156667
934.436	0.0156975
934.514	0.0157382
934.592	0.0155512
934.670	0.0156852
934.748	0.0156106
934.826	0.0156654
934.905	0.0157242
934.983	0.0156017
935.061	0.0156630
935.139	0.0155927
935.217	0.0155746
935.295	0.0155640
935.373	0.0155764
935.451	0.0156998
935.530	0.0156478
935.608	0.0155094
935.686	0.0155936
935.764	0.0155357
935.842	0.0157416
935.920	0.0157294
935.998	0.0156936
936.076	0.0156789
936.155	0.0156008
936.233	0.0155925
936.311	0.0155791
936.389	0.0155947
936.467	0.0156201
936.545	0.0156722
936.623	0.0155823
936.701	0.0157417
936.780	0.0157791
936.858	0.0155772
936.936	0.0157195
937.014	0.0157308
937.092	0.0157180
937.170	0.0157550
937.248	0.0157964
937.326	0.0156409
937.405	0.0158080
937.483	0.0159091
937.561	0.0159136
937.639	0.0158750
937.717	0.0158875
937.795	0.0158286
937.873	0.0157883
937.951	0.0158080
938.030	0.0159295
938.108	0.0158334
938.186	0.0158683
938.264	0.0157959
938.342	0.0158255
938.420	0.0157171
938.498	0.0156993
938.576	0.0156635
938.655	0.0156464
938.733	0.0156052
938.811	0.0155730
938.889	0.0155884
938.967	0.0156805
939.045	0.0155277
939.123	0.0154759
939.201	0.0156470
939.280	0.0154428
939.358	0.0155158
939.436	0.0156141
939.514	0.0154855
939.592	0.0155582
939.670	0.0156174
939.748	0.0157376
939.826	0.0156440
939.905	0.0157860
939.983	0.0157155
940.061	0.0157346
940.139	0.0157948
940.217	0.0157117
940.295	0.0157246
940.373	0.0155376
940.451	0.0155949
940.530	0.0157704
940.608	0.0156562
940.686	0.0154021
940.764	0.0156281
940.842	0.0155225
940.920	0.0154543
940.998	0.0154819
941.076	0.0154897
941.155	0.0154261
941.233	0.0154885
941.311	0.0153529
941.389	0.0154765
941.467	0.0154835
941.545	0.0154200
941.623	0.0155134
941.701	0.0154206
941.780	0.0154459
941.858	0.0156153
941.936	0.0154909
942.014	0.0154060
942.092	0.0156284
942.170	0.0156103
942.248	0.0155750
942.326	0.0155721
942.405	0.0156316
942.483	0.0156299
942.561	0.0157398
942.639	0.0155815
942.717	0.0155341
942.795	0.0157282
942.873	0.0156522
942.951	0.0156072
943.030	0.0155475
943.108	0.0155950
943.186	0.0154886
943.264	0.0155011
943.342	0.0155003
943.420	0.0155927
943.498	0.0155591
943.576	0.0155111
943.655	0.0154085
943.733	0.0155973
943.811	0.0155100
943.889	0.0154699
943.967	0.0154246
944.045	0.0154510
944.123	0.0154334
944.201	0.0154414
944.280	0.0154248
944.358	0.0155691
944.436	0.0154140
944.514	0.0154810
944.592	0.0156394
944.670	0.0156194
944.748	0.0156773
944.826	0.0155179
944.905	0.0156010
944.983	0.0155559
945.061	0.0156370
945.139	0.0155859
945.217	0.0156635
945.295	0.0157189
945.373	0.0155964
945.451	0.0155947
945.530	0.0155576
945.608	0.0156425
945.686	0.0155139
945.764	0.0155087
945.842	0.0156010
945.920	0.0155315
945.998	0.0157418
946.076	0.0156424
946.155	0.0156126
946.233	0.0156537
946.311	0.0155097
946.389	0.0155922
946.467	0.0155289
946.545	0.0156715
946.623	0.0155064
946.701	0.0156709
946.780	0.0156158
946.858	0.0155779
946.936	0.0155995
947.014	0.0155887
947.092	0.0155748
947.170	0.0155984
947.248	0.0156686
947.326	0.0155991
947.405	0.0154808
947.483	0.0155510
947.561	0.0156049
947.639	0.0156062
947.717	0.0154989
947.795	0.0155467
947.873	0.0155553
947.951	0.0155584
948.030	0.0154710
948.108	0.0156615
948.186	0.0156185
948.264	0.0155817
948.342	0.0156825
948.420	0.0155206
948.498	0.0154128
948.576	0.0155336
948.655	0.0154066
948.733	0.0154392
948.811	0.0154021
948.889	0.0155248
948.967	0.0155253
949.045	0.0154186
949.123	0.0154769
949.201	0.0154804
949.280	0.0155554
949.358	0.0156302
949.436	0.0155801
949.514	0.0155344
949.592	0.0155098
949.670	0.0154658
949.748	0.0156023
949.826	0.0154869
949.905	0.0156392
949.983	0.0155580
950.061	0.0155719
950.139	0.0155862
950.217	0.0154799
950.295	0.0155916
950.373	0.0154532
950.451	0.0155397
950.530	0.0155274
950.608	0.0155306
950.686	0.0154395
950.764	0.0155479
950.842	0.0155019
950.920	0.0155729
950.998	0.0156870
951.076	0.0155267
951.155	0.0155286
951.233	0.0154918
951.311	0.0154499
951.389	0.0154521
951.467	0.0156091
951.545	0.0156039
951.623	0.0154417
951.701	0.0155409
951.780	0.0155278
951.858	0.0156248
951.936	0.0155222
952.014	0.0156409
952.092	0.0157137
952.170	0.0155946
952.248	0.0156416
952.326	0.0156241
952.405	0.0154788
952.483	0.0156707
952.561	0.0157464
952.639	0.0157159
952.717	0.0155627
952.795	0.0156568
952.873	0.0156680
952.951	0.0157613
953.030	0.0157424
953.108	0.0158692
953.186	0.0157626
953.264	0.0156227
953.342	0.0157761
953.420	0.0158049
953.498	0.0158881
953.576	0.0156937
953.655	0.0156699
953.733	0.0156676
953.811	0.0157457
953.889	0.0157838
953.967	0.0157819
954.045	0.0157967
954.123	0.0156449
954.201	0.0157111
954.280	0.0156968
954.358	0.0156584
954.436	0.0157033
954.514	0.0157014
954.592	0.0157544
954.670	0.0156152
954.748	0.0156303
954.826	0.0156464
954.905	0.0156484
954.983	0.0154958
955.061	0.0156160
955.139	0.0155572
955.217	0.0155621
955.295	0.0156226
955.373	0.0155276
955.451	0.0154670
955.530	0.0154171
955.608	0.0154862
955.686	0.0155541
955.764	0.0154567
955.842	0.0154910
955.920	0.0154623
955.998	0.0154320
956.076	0.0155511
956.155	0.0154395
956.233	0.0152754
956.311	0.0153268
956.389	0.0153450
956.467	0.0155265
956.545	0.0153954
956.623	0.0155614
956.701	0.0154862
956.780	0.0157092
956.858	0.0153898
956.936	0.0155759
957.014	0.0155977
957.092	0.0155688
957.170	0.0156923
957.248	0.0156177
957.326	0.0155355
957.405	0.0155999
957.483	0.0156114
957.561	0.0156340
957.639	0.0157455
957.717	0.0157286
957.795	0.0157587
957.873	0.0156087
957.951	0.0157910
958.030	0.0157992
958.108	0.0157038
958.186	0.0157576
958.264	0.0157964
958.342	0.0157469
958.420	0.0157329
958.498	0.0157829
958.576	0.0157584
958.655	0.0158953
958.733	0.0157324
958.811	0.0155474
958.889	0.0156256
958.967	0.0158000
959.045	0.0157110
959.123	0.0156069
959.201	0.0155804
959.280	0.0155175
959.358	0.0157813
959.436	0.0157253
959.514	0.0156430
959.592	0.0154807
959.670	0.0155568
959.748	0.0155994
959.826	0.0156436
959.905	0.0157023
