05/17/2022	16:58:59	Ver.	4.1	UNKNOWN
Optical Delay	639.982744	Delta X		0.078125	Sweeps	1	Scan Rate	0/0
Coordinates	Axis 1	NaN	Axis 2	NaN	Axis 3	NaN	Axis 4	NaN	Axis 5	NaN	Axis 6	0.000000
TX Power	0.000000	RX Power	0.000000

639.983	0.0161412
640.061	0.0162082
640.139	0.0161223
640.217	0.0161816
640.295	0.0160103
640.373	0.0160368
640.451	0.0161177
640.530	0.0160076
640.608	0.0160564
640.686	0.0161022
640.764	0.0161427
640.842	0.0160850
640.920	0.0161240
640.998	0.0160194
641.076	0.0161488
641.155	0.0162385
641.233	0.0162744
641.311	0.0162825
641.389	0.0163216
641.467	0.0161739
641.545	0.0160130
641.623	0.0159699
641.701	0.0162096
641.780	0.0162103
641.858	0.0162034
641.936	0.0160313
642.014	0.0161711
642.092	0.0161852
642.170	0.0161827
642.248	0.0162029
642.326	0.0160731
642.405	0.0161558
642.483	0.0161909
642.561	0.0161388
642.639	0.0160549
642.717	0.0163313
642.795	0.0163132
642.873	0.0161044
642.951	0.0162498
643.030	0.0162952
643.108	0.0162266
643.186	0.0161193
643.264	0.0162898
643.342	0.0163078
643.420	0.0161976
643.498	0.0159444
643.576	0.0160435
643.655	0.0162709
643.733	0.0161720
643.811	0.0160171
643.889	0.0160828
643.967	0.0160935
644.045	0.0161459
644.123	0.0162318
644.201	0.0161723
644.280	0.0160979
644.358	0.0162103
644.436	0.0162006
644.514	0.0161151
644.592	0.0162392
644.670	0.0162538
644.748	0.0162276
644.826	0.0162487
644.905	0.0161405
644.983	0.0162281
645.061	0.0162880
645.139	0.0163870
645.217	0.0162891
645.295	0.0165621
645.373	0.0164326
645.451	0.0164974
645.530	0.0165858
645.608	0.0164017
645.686	0.0164400
645.764	0.0163664
645.842	0.0164462
645.920	0.0166557
645.998	0.0163828
646.076	0.0163363
646.155	0.0164325
646.233	0.0163040
646.311	0.0161467
646.389	0.0161836
646.467	0.0163354
646.545	0.0161159
646.623	0.0162997
646.701	0.0162285
646.780	0.0161604
646.858	0.0161810
646.936	0.0160989
647.014	0.0161301
647.092	0.0160062
647.170	0.0159983
647.248	0.0161169
647.326	0.0160006
647.405	0.0161135
647.483	0.0161832
647.561	0.0161729
647.639	0.0160806
647.717	0.0160391
647.795	0.0161637
647.873	0.0161558
647.951	0.0162289
648.030	0.0163256
648.108	0.0163165
648.186	0.0163000
648.264	0.0163859
648.342	0.0162997
648.420	0.0162674
648.498	0.0163285
648.576	0.0164249
648.655	0.0162930
648.733	0.0163974
648.811	0.0162939
648.889	0.0163184
648.967	0.0162463
649.045	0.0161957
649.123	0.0161459
649.201	0.0163087
649.280	0.0162459
649.358	0.0161272
649.436	0.0161964
649.514	0.0161854
649.592	0.0160483
649.670	0.0161924
649.748	0.0162125
649.826	0.0162055
649.905	0.0162325
649.983	0.0163605
650.061	0.0163772
650.139	0.0162901
650.217	0.0163489
650.295	0.0163251
650.373	0.0164665
650.451	0.0163656
650.530	0.0163361
650.608	0.0163542
650.686	0.0164306
650.764	0.0163128
650.842	0.0162663
650.920	0.0162881
650.998	0.0162115
651.076	0.0163074
651.155	0.0162892
651.233	0.0163610
651.311	0.0163325
651.389	0.0161505
651.467	0.0161562
651.545	0.0162160
651.623	0.0162737
651.701	0.0160732
651.780	0.0161731
651.858	0.0162013
651.936	0.0160787
652.014	0.0162135
652.092	0.0164061
652.170	0.0161906
652.248	0.0163561
652.326	0.0163036
652.405	0.0163396
652.483	0.0163897
652.561	0.0163845
652.639	0.0163090
652.717	0.0163723
652.795	0.0163425
652.873	0.0162986
652.951	0.0162735
653.030	0.0163153
653.108	0.0164709
653.186	0.0163481
653.264	0.0163064
653.342	0.0163235
653.420	0.0163468
653.498	0.0162534
653.576	0.0163047
653.655	0.0162608
653.733	0.0163099
653.811	0.0163432
653.889	0.0162521
653.967	0.0161580
654.045	0.0162753
654.123	0.0163130
654.201	0.0162801
654.280	0.0162621
654.358	0.0162225
654.436	0.0162405
654.514	0.0162730
654.592	0.0161943
654.670	0.0162012
654.748	0.0162486
654.826	0.0162222
654.905	0.0161235
654.983	0.0162410
655.061	0.0163039
655.139	0.0162038
655.217	0.0162617
655.295	0.0162203
655.373	0.0161675
655.451	0.0162630
655.530	0.0161230
655.608	0.0161738
655.686	0.0162012
655.764	0.0161159
655.842	0.0162256
655.920	0.0161938
655.998	0.0160458
656.076	0.0159589
656.155	0.0158456
656.233	0.0160210
656.311	0.0159891
656.389	0.0160381
656.467	0.0160085
656.545	0.0159879
656.623	0.0157673
656.701	0.0158781
656.780	0.0159099
656.858	0.0159737
656.936	0.0159148
657.014	0.0159541
657.092	0.0158486
657.170	0.0158647
657.248	0.0160001
657.326	0.0159292
657.405	0.0160679
657.483	0.0161118
657.561	0.0161600
657.639	0.0160410
657.717	0.0161143
657.795	0.0161851
657.873	0.0162265
657.951	0.0161309
658.030	0.0161597
658.108	0.0162791
658.186	0.0162411
658.264	0.0162040
658.342	0.0162126
658.420	0.0161194
658.498	0.0162312
658.576	0.0162602
658.655	0.0161102
658.733	0.0160614
658.811	0.0159879
658.889	0.0162132
658.967	0.0161434
659.045	0.0160999
659.123	0.0163004
659.201	0.0161115
659.280	0.0160925
659.358	0.0161233
659.436	0.0161876
659.514	0.0162962
659.592	0.0162957
659.670	0.0162771
659.748	0.0162901
659.826	0.0162383
659.905	0.0163905
659.983	0.0164457
660.061	0.0163970
660.139	0.0162006
660.217	0.0163299
660.295	0.0163728
660.373	0.0162257
660.451	0.0161888
660.530	0.0162967
660.608	0.0161871
660.686	0.0163246
660.764	0.0162102
660.842	0.0161680
660.920	0.0162758
660.998	0.0162302
661.076	0.0161509
661.155	0.0162011
661.233	0.0162099
661.311	0.0163348
661.389	0.0162814
661.467	0.0161063
661.545	0.0161752
661.623	0.0162119
661.701	0.0162486
661.780	0.0161710
661.858	0.0162529
661.936	0.0163139
662.014	0.0162077
662.092	0.0162358
662.170	0.0163026
662.248	0.0162164
662.326	0.0162439
662.405	0.0162452
662.483	0.0163088
662.561	0.0162991
662.639	0.0163101
662.717	0.0162499
662.795	0.0162746
662.873	0.0162431
662.951	0.0162774
663.030	0.0163897
663.108	0.0162890
663.186	0.0161839
663.264	0.0161222
663.342	0.0161655
663.420	0.0161012
663.498	0.0161127
663.576	0.0161589
663.655	0.0161184
663.733	0.0161383
663.811	0.0161754
663.889	0.0161114
663.967	0.0160471
664.045	0.0161060
664.123	0.0162566
664.201	0.0161886
664.280	0.0161328
664.358	0.0160049
664.436	0.0161816
664.514	0.0163919
664.592	0.0162914
664.670	0.0162476
664.748	0.0162106
664.826	0.0162751
664.905	0.0162788
664.983	0.0162724
665.061	0.0162075
665.139	0.0162344
665.217	0.0163135
665.295	0.0161553
665.373	0.0161981
665.451	0.0164284
665.530	0.0163036
665.608	0.0161599
665.686	0.0162741
665.764	0.0163140
665.842	0.0163181
665.920	0.0163484
665.998	0.0162587
666.076	0.0162634
666.155	0.0162908
666.233	0.0163020
666.311	0.0163531
666.389	0.0163032
666.467	0.0164284
666.545	0.0163481
666.623	0.0162186
666.701	0.0163979
666.780	0.0163223
666.858	0.0163881
666.936	0.0162524
667.014	0.0161250
667.092	0.0161083
667.170	0.0161119
667.248	0.0160323
667.326	0.0162398
667.405	0.0162889
667.483	0.0161603
667.561	0.0162247
667.639	0.0162196
667.717	0.0163546
667.795	0.0164259
667.873	0.0164280
667.951	0.0165599
668.030	0.0165128
668.108	0.0165866
668.186	0.0166933
668.264	0.0165945
668.342	0.0165261
668.420	0.0164284
668.498	0.0163925
668.576	0.0164127
668.655	0.0163337
668.733	0.0162799
668.811	0.0162173
668.889	0.0161473
668.967	0.0162164
669.045	0.0161065
669.123	0.0160632
669.201	0.0159928
669.280	0.0160286
669.358	0.0161099
669.436	0.0161488
669.514	0.0159494
669.592	0.0161257
669.670	0.0160842
669.748	0.0161672
669.826	0.0162261
669.905	0.0161332
669.983	0.0163772
670.061	0.0164353
670.139	0.0161877
670.217	0.0164698
670.295	0.0166664
670.373	0.0168216
670.451	0.0168866
670.530	0.0169001
670.608	0.0168587
670.686	0.0169117
670.764	0.0168755
670.842	0.0168340
670.920	0.0168939
670.998	0.0167406
671.076	0.0166438
671.155	0.0166153
671.233	0.0165509
671.311	0.0165001
671.389	0.0162574
671.467	0.0162032
671.545	0.0160790
671.623	0.0159386
671.701	0.0159879
671.780	0.0159502
671.858	0.0157681
671.936	0.0157153
672.014	0.0157251
672.092	0.0155849
672.170	0.0158840
672.248	0.0158245
672.326	0.0157686
672.405	0.0158676
672.483	0.0159153
672.561	0.0159947
672.639	0.0160861
672.717	0.0159834
672.795	0.0160828
672.873	0.0162415
672.951	0.0162862
673.030	0.0162358
673.108	0.0163876
673.186	0.0164944
673.264	0.0164690
673.342	0.0164463
673.420	0.0166466
673.498	0.0166199
673.576	0.0166084
673.655	0.0166610
673.733	0.0165644
673.811	0.0166785
673.889	0.0167017
673.967	0.0166548
674.045	0.0165406
674.123	0.0165381
674.201	0.0163673
674.280	0.0161816
674.358	0.0161473
674.436	0.0160369
674.514	0.0159351
674.592	0.0157863
674.670	0.0156434
674.748	0.0155628
674.826	0.0154803
674.905	0.0153681
674.983	0.0154694
675.061	0.0155431
675.139	0.0154083
675.217	0.0155119
675.295	0.0156406
675.373	0.0156147
675.451	0.0155444
675.530	0.0157506
675.608	0.0158672
675.686	0.0159248
675.764	0.0160870
675.842	0.0163385
675.920	0.0161774
675.998	0.0162294
676.076	0.0163162
676.155	0.0163926
676.233	0.0164397
676.311	0.0165289
676.389	0.0165907
676.467	0.0165139
676.545	0.0164778
676.623	0.0163645
676.701	0.0164345
676.780	0.0162331
676.858	0.0163874
676.936	0.0163219
677.014	0.0161594
677.092	0.0162214
677.170	0.0162835
677.248	0.0162675
677.326	0.0162445
677.405	0.0162739
677.483	0.0163413
677.561	0.0164377
677.639	0.0163507
677.717	0.0162329
677.795	0.0163145
677.873	0.0163124
677.951	0.0162107
678.030	0.0162777
678.108	0.0164535
678.186	0.0163161
678.264	0.0161871
678.342	0.0163362
678.420	0.0162637
678.498	0.0162219
678.576	0.0162639
678.655	0.0163420
678.733	0.0163204
678.811	0.0162132
678.889	0.0162138
678.967	0.0160417
679.045	0.0162907
679.123	0.0164140
679.201	0.0164237
679.280	0.0163098
679.358	0.0164587
679.436	0.0166015
679.514	0.0165007
679.592	0.0164964
679.670	0.0164198
679.748	0.0165270
679.826	0.0163741
679.905	0.0166036
679.983	0.0164262
680.061	0.0164527
680.139	0.0164759
680.217	0.0162456
680.295	0.0162894
680.373	0.0161063
680.451	0.0161447
680.530	0.0160891
680.608	0.0159213
680.686	0.0158651
680.764	0.0158378
680.842	0.0157099
680.920	0.0156467
680.998	0.0155413
681.076	0.0155563
681.155	0.0154496
681.233	0.0155519
681.311	0.0154046
681.389	0.0154639
681.467	0.0155613
681.545	0.0155026
681.623	0.0154958
681.701	0.0157390
681.780	0.0158489
681.858	0.0159130
681.936	0.0159894
682.014	0.0161357
682.092	0.0161005
682.170	0.0161901
682.248	0.0162916
682.326	0.0165482
682.405	0.0167706
682.483	0.0167403
682.561	0.0168850
682.639	0.0169505
682.717	0.0171694
682.795	0.0172414
682.873	0.0172903
682.951	0.0175038
683.030	0.0175192
683.108	0.0175790
683.186	0.0176895
683.264	0.0178053
683.342	0.0177180
683.420	0.0177290
683.498	0.0176861
683.576	0.0176322
683.655	0.0176544
683.733	0.0175730
683.811	0.0174857
683.889	0.0173399
683.967	0.0171552
684.045	0.0170065
684.123	0.0167969
684.201	0.0166211
684.280	0.0164322
684.358	0.0161824
684.436	0.0158871
684.514	0.0158286
684.592	0.0156596
684.670	0.0155084
684.748	0.0154829
684.826	0.0152497
684.905	0.0151740
684.983	0.0150872
685.061	0.0148782
685.139	0.0149410
685.217	0.0150695
685.295	0.0151094
685.373	0.0150427
685.451	0.0150878
685.530	0.0151208
685.608	0.0152325
685.686	0.0151274
685.764	0.0153316
685.842	0.0153336
685.920	0.0154177
685.998	0.0155215
686.076	0.0155039
686.155	0.0157378
686.233	0.0156843
686.311	0.0157713
686.389	0.0159200
686.467	0.0161156
686.545	0.0162487
686.623	0.0163825
686.701	0.0166526
686.780	0.0167250
686.858	0.0169434
686.936	0.0171458
687.014	0.0172392
687.092	0.0173928
687.170	0.0173862
687.248	0.0175256
687.326	0.0176561
687.405	0.0179366
687.483	0.0178333
687.561	0.0177682
687.639	0.0177894
687.717	0.0176426
687.795	0.0175664
687.873	0.0175996
687.951	0.0172939
688.030	0.0170461
688.108	0.0169003
688.186	0.0168283
688.264	0.0167617
688.342	0.0163157
688.420	0.0159938
688.498	0.0159760
688.576	0.0159171
688.655	0.0156474
688.733	0.0155071
688.811	0.0155516
688.889	0.0154443
688.967	0.0153768
689.045	0.0153167
689.123	0.0153785
689.201	0.0154177
689.280	0.0153720
689.358	0.0156219
689.436	0.0159076
689.514	0.0159221
689.592	0.0158945
689.670	0.0161819
689.748	0.0162204
689.826	0.0165715
689.905	0.0165267
689.983	0.0165939
690.061	0.0167084
690.139	0.0167929
690.217	0.0168141
690.295	0.0168641
690.373	0.0168285
690.451	0.0168331
690.530	0.0167559
690.608	0.0169215
690.686	0.0167365
690.764	0.0165175
690.842	0.0164684
690.920	0.0164338
690.998	0.0163657
691.076	0.0160730
691.155	0.0161009
691.233	0.0158496
691.311	0.0158196
691.389	0.0157710
691.467	0.0157832
691.545	0.0157185
691.623	0.0156772
691.701	0.0156523
691.780	0.0156737
691.858	0.0155319
691.936	0.0157123
692.014	0.0158318
692.092	0.0159787
692.170	0.0159692
692.248	0.0159661
692.326	0.0159700
692.405	0.0162984
692.483	0.0163572
692.561	0.0163107
692.639	0.0163870
692.717	0.0165063
692.795	0.0165343
692.873	0.0165092
692.951	0.0166462
693.030	0.0165146
693.108	0.0165626
693.186	0.0165176
693.264	0.0167218
693.342	0.0165797
693.420	0.0167216
693.498	0.0167434
693.576	0.0168009
693.655	0.0166823
693.733	0.0167336
693.811	0.0166764
693.889	0.0165812
693.967	0.0164846
694.045	0.0165243
694.123	0.0164538
694.201	0.0163782
694.280	0.0162393
694.358	0.0161210
694.436	0.0162522
694.514	0.0161953
694.592	0.0160959
694.670	0.0159969
694.748	0.0159754
694.826	0.0159806
694.905	0.0160004
694.983	0.0160570
695.061	0.0160300
695.139	0.0159624
695.217	0.0160390
695.295	0.0161444
695.373	0.0163231
695.451	0.0164225
695.530	0.0163763
695.608	0.0164405
695.686	0.0165067
695.764	0.0166777
695.842	0.0164892
695.920	0.0166221
695.998	0.0164263
696.076	0.0164083
696.155	0.0164427
696.233	0.0164438
696.311	0.0162871
696.389	0.0161958
696.467	0.0161484
696.545	0.0160409
696.623	0.0159667
696.701	0.0157635
696.780	0.0155675
696.858	0.0155956
696.936	0.0153774
697.014	0.0152142
697.092	0.0153649
697.170	0.0153683
697.248	0.0151899
697.326	0.0151685
697.405	0.0152133
697.483	0.0151553
697.561	0.0152295
697.639	0.0153378
697.717	0.0151739
697.795	0.0153087
697.873	0.0153277
697.951	0.0155659
698.030	0.0154391
698.108	0.0156817
698.186	0.0157160
698.264	0.0158205
698.342	0.0161366
698.420	0.0164623
698.498	0.0163942
698.576	0.0166361
698.655	0.0168195
698.733	0.0169730
698.811	0.0171038
698.889	0.0173340
698.967	0.0174620
699.045	0.0174650
699.123	0.0174419
699.201	0.0174814
699.280	0.0175016
699.358	0.0174680
699.436	0.0174441
699.514	0.0174532
699.592	0.0173761
699.670	0.0172459
699.748	0.0170985
699.826	0.0167452
699.905	0.0165780
699.983	0.0164034
700.061	0.0161362
700.139	0.0159193
700.217	0.0159001
700.295	0.0157874
700.373	0.0155184
700.451	0.0153692
700.530	0.0153964
700.608	0.0151967
700.686	0.0150737
700.764	0.0149705
700.842	0.0148434
700.920	0.0149588
700.998	0.0150775
701.076	0.0152860
701.155	0.0153065
701.233	0.0154336
701.311	0.0156613
701.389	0.0157713
701.467	0.0159499
701.545	0.0161498
701.623	0.0162515
701.701	0.0163690
701.780	0.0167213
701.858	0.0167974
701.936	0.0169330
702.014	0.0170053
702.092	0.0170255
702.170	0.0170256
702.248	0.0171814
702.326	0.0169388
702.405	0.0170503
702.483	0.0169473
702.561	0.0168565
702.639	0.0168056
702.717	0.0165759
702.795	0.0165585
702.873	0.0165673
702.951	0.0164951
703.030	0.0162752
703.108	0.0162410
703.186	0.0161417
703.264	0.0163082
703.342	0.0160944
703.420	0.0161603
703.498	0.0161096
703.576	0.0161005
703.655	0.0161136
703.733	0.0161668
703.811	0.0162779
703.889	0.0162093
703.967	0.0161643
704.045	0.0162257
704.123	0.0164646
704.201	0.0161655
704.280	0.0162464
704.358	0.0162648
704.436	0.0164433
704.514	0.0164579
704.592	0.0161768
704.670	0.0163131
704.748	0.0162904
704.826	0.0161134
704.905	0.0161882
704.983	0.0161475
705.061	0.0161514
705.139	0.0161411
705.217	0.0159859
705.295	0.0160059
705.373	0.0158340
705.451	0.0157782
705.530	0.0155889
705.608	0.0157721
705.686	0.0157538
705.764	0.0155882
705.842	0.0157552
705.920	0.0157096
705.998	0.0156514
706.076	0.0157448
706.155	0.0158838
706.233	0.0159038
706.311	0.0160390
706.389	0.0159354
706.467	0.0161516
706.545	0.0162437
706.623	0.0162661
706.701	0.0164120
706.780	0.0162759
706.858	0.0162975
706.936	0.0165348
707.014	0.0165575
707.092	0.0166454
707.170	0.0166122
707.248	0.0166708
707.326	0.0167097
707.405	0.0167170
707.483	0.0167301
707.561	0.0169202
707.639	0.0169016
707.717	0.0166656
707.795	0.0166449
707.873	0.0168203
707.951	0.0168223
708.030	0.0168053
708.108	0.0165250
708.186	0.0165608
708.264	0.0163926
708.342	0.0164125
708.420	0.0163271
708.498	0.0162429
708.576	0.0162626
708.655	0.0160343
708.733	0.0160204
708.811	0.0159079
708.889	0.0158926
708.967	0.0158370
709.045	0.0160090
709.123	0.0158582
709.201	0.0157712
709.280	0.0158163
709.358	0.0161549
709.436	0.0160130
709.514	0.0159486
709.592	0.0162255
709.670	0.0163831
709.748	0.0164597
709.826	0.0163773
709.905	0.0164433
709.983	0.0165242
710.061	0.0166693
710.139	0.0165076
710.217	0.0165018
710.295	0.0163501
710.373	0.0164015
710.451	0.0163607
710.530	0.0161643
710.608	0.0161520
710.686	0.0162201
710.764	0.0162521
710.842	0.0161364
710.920	0.0159655
710.998	0.0160125
711.076	0.0160873
711.155	0.0159386
711.233	0.0159857
711.311	0.0159270
711.389	0.0160592
711.467	0.0160779
711.545	0.0160580
711.623	0.0161396
711.701	0.0162175
711.780	0.0160596
711.858	0.0159351
711.936	0.0161384
712.014	0.0162771
712.092	0.0163543
712.170	0.0163108
712.248	0.0163047
712.326	0.0164079
712.405	0.0164259
712.483	0.0164336
712.561	0.0164638
712.639	0.0166550
712.717	0.0165945
712.795	0.0167015
712.873	0.0167151
712.951	0.0167469
713.030	0.0167693
713.108	0.0168931
713.186	0.0167702
713.264	0.0166969
713.342	0.0165887
713.420	0.0166721
713.498	0.0166798
713.576	0.0164865
713.655	0.0163487
713.733	0.0162273
713.811	0.0161501
713.889	0.0161675
713.967	0.0161346
714.045	0.0160744
714.123	0.0159534
714.201	0.0159801
714.280	0.0160207
714.358	0.0160018
714.436	0.0159197
714.514	0.0159295
714.592	0.0159444
714.670	0.0160486
714.748	0.0159908
714.826	0.0160791
714.905	0.0161657
714.983	0.0162262
715.061	0.0162182
715.139	0.0161762
715.217	0.0161821
715.295	0.0162714
715.373	0.0161119
715.451	0.0160591
715.530	0.0160274
715.608	0.0161353
715.686	0.0159907
715.764	0.0159141
715.842	0.0159235
715.920	0.0161324
715.998	0.0159685
716.076	0.0161227
716.155	0.0159950
716.233	0.0160479
716.311	0.0161255
716.389	0.0160227
716.467	0.0161032
716.545	0.0162227
716.623	0.0162701
716.701	0.0163081
716.780	0.0165240
716.858	0.0164872
716.936	0.0164310
717.014	0.0165774
717.092	0.0167157
717.170	0.0168439
717.248	0.0168474
717.326	0.0169152
717.405	0.0168331
717.483	0.0168102
717.561	0.0169462
717.639	0.0168739
717.717	0.0166089
717.795	0.0166889
717.873	0.0166183
717.951	0.0165832
718.030	0.0165097
718.108	0.0162894
718.186	0.0162010
718.264	0.0160253
718.342	0.0160194
718.420	0.0159216
718.498	0.0158096
718.576	0.0155645
718.655	0.0156570
718.733	0.0155659
718.811	0.0153510
718.889	0.0153923
718.967	0.0154779
719.045	0.0155254
719.123	0.0155784
719.201	0.0155597
719.280	0.0155800
719.358	0.0157327
719.436	0.0159361
719.514	0.0159518
719.592	0.0159400
719.670	0.0159194
719.748	0.0162415
719.826	0.0161628
719.905	0.0162135
719.983	0.0163519
720.061	0.0162922
720.139	0.0163885
720.217	0.0162713
720.295	0.0162154
720.373	0.0161691
720.451	0.0162703
720.530	0.0162961
720.608	0.0161349
720.686	0.0162437
720.764	0.0161735
720.842	0.0160766
720.920	0.0161044
720.998	0.0160822
721.076	0.0159618
721.155	0.0159498
721.233	0.0159058
721.311	0.0158289
721.389	0.0158199
721.467	0.0158577
721.545	0.0158750
721.623	0.0159663
721.701	0.0158704
721.780	0.0160201
721.858	0.0161990
721.936	0.0162431
722.014	0.0163861
722.092	0.0165889
722.170	0.0164832
722.248	0.0166924
722.326	0.0166417
722.405	0.0167834
722.483	0.0169675
722.561	0.0168406
722.639	0.0169535
722.717	0.0169984
722.795	0.0168356
722.873	0.0168139
722.951	0.0168853
723.030	0.0168288
723.108	0.0166522
723.186	0.0164095
723.264	0.0165740
723.342	0.0165459
723.420	0.0162679
723.498	0.0163118
723.576	0.0162562
723.655	0.0161861
723.733	0.0161859
723.811	0.0163172
723.889	0.0162576
723.967	0.0161413
724.045	0.0162335
724.123	0.0164064
724.201	0.0164536
724.280	0.0165945
724.358	0.0165143
724.436	0.0164014
724.514	0.0164903
724.592	0.0166360
724.670	0.0165307
724.748	0.0164732
724.826	0.0164310
724.905	0.0164112
724.983	0.0162131
725.061	0.0161043
725.139	0.0161136
725.217	0.0160658
725.295	0.0158878
725.373	0.0156601
725.451	0.0158075
725.530	0.0158778
725.608	0.0159030
725.686	0.0157738
725.764	0.0157289
725.842	0.0157045
725.920	0.0156507
725.998	0.0157913
726.076	0.0158503
726.155	0.0158546
726.233	0.0159786
726.311	0.0160008
726.389	0.0159777
726.467	0.0159908
726.545	0.0159820
726.623	0.0160702
726.701	0.0160793
726.780	0.0160281
726.858	0.0161531
726.936	0.0161597
727.014	0.0162380
727.092	0.0160535
727.170	0.0161339
727.248	0.0160448
727.326	0.0160217
727.405	0.0159879
727.483	0.0157609
727.561	0.0159061
727.639	0.0159777
727.717	0.0160928
727.795	0.0158980
727.873	0.0158399
727.951	0.0158601
728.030	0.0159248
728.108	0.0160010
728.186	0.0160362
728.264	0.0160764
728.342	0.0160710
728.420	0.0162830
728.498	0.0162234
728.576	0.0162772
728.655	0.0163298
728.733	0.0164550
728.811	0.0166039
728.889	0.0165639
728.967	0.0166232
729.045	0.0166389
729.123	0.0166708
729.201	0.0168199
729.280	0.0167760
729.358	0.0167113
729.436	0.0166948
729.514	0.0166050
729.592	0.0166485
729.670	0.0167381
729.748	0.0166018
729.826	0.0164851
729.905	0.0165009
729.983	0.0163419
730.061	0.0162964
730.139	0.0162722
730.217	0.0163833
730.295	0.0164237
730.373	0.0164216
730.451	0.0163186
730.530	0.0163293
730.608	0.0162595
730.686	0.0162729
730.764	0.0162846
730.842	0.0161469
730.920	0.0162708
730.998	0.0162164
731.076	0.0163889
731.155	0.0162696
731.233	0.0162366
731.311	0.0161833
731.389	0.0161954
731.467	0.0161460
731.545	0.0160926
731.623	0.0161311
731.701	0.0160233
731.780	0.0158823
731.858	0.0158617
731.936	0.0159386
732.014	0.0156252
732.092	0.0157838
732.170	0.0157334
732.248	0.0156303
732.326	0.0157687
732.405	0.0157587
732.483	0.0158279
732.561	0.0159488
732.639	0.0159155
732.717	0.0159995
732.795	0.0161224
732.873	0.0162016
732.951	0.0161549
733.030	0.0162607
733.108	0.0161170
733.186	0.0161849
733.264	0.0162132
733.342	0.0161852
733.420	0.0162543
733.498	0.0161858
733.576	0.0161466
733.655	0.0161320
733.733	0.0161674
733.811	0.0162133
733.889	0.0161659
733.967	0.0161394
734.045	0.0161258
734.123	0.0161602
734.201	0.0160516
734.280	0.0161763
734.358	0.0161520
734.436	0.0162010
734.514	0.0160558
734.592	0.0160149
734.670	0.0162379
734.748	0.0161674
734.826	0.0161207
734.905	0.0160845
734.983	0.0162575
735.061	0.0161951
735.139	0.0162047
735.217	0.0162488
735.295	0.0163235
735.373	0.0162993
735.451	0.0162902
735.530	0.0162285
735.608	0.0162363
735.686	0.0163012
735.764	0.0162942
735.842	0.0162918
735.920	0.0161584
735.998	0.0161814
736.076	0.0162049
736.155	0.0161543
736.233	0.0161633
736.311	0.0162079
736.389	0.0161491
736.467	0.0160747
736.545	0.0161954
736.623	0.0162466
736.701	0.0162572
736.780	0.0162377
736.858	0.0163738
736.936	0.0165384
737.014	0.0164962
737.092	0.0165585
737.170	0.0164101
737.248	0.0165605
737.326	0.0165433
737.405	0.0165873
737.483	0.0165261
737.561	0.0165876
737.639	0.0166305
737.717	0.0165592
737.795	0.0165089
737.873	0.0163682
737.951	0.0163425
738.030	0.0164355
738.108	0.0162634
738.186	0.0162748
738.264	0.0162460
738.342	0.0161343
738.420	0.0159885
738.498	0.0160078
738.576	0.0159937
738.655	0.0159144
738.733	0.0159253
738.811	0.0158959
738.889	0.0160519
738.967	0.0160110
739.045	0.0160787
739.123	0.0159451
739.201	0.0160570
739.280	0.0159744
739.358	0.0159546
739.436	0.0160151
739.514	0.0158405
739.592	0.0159352
739.670	0.0160435
739.748	0.0161058
739.826	0.0160957
739.905	0.0161160
739.983	0.0158216
740.061	0.0159196
740.139	0.0160005
740.217	0.0161224
740.295	0.0161160
740.373	0.0160238
740.451	0.0161803
740.530	0.0160954
740.608	0.0160572
740.686	0.0160806
740.764	0.0161012
740.842	0.0161931
740.920	0.0162399
740.998	0.0161829
741.076	0.0162194
741.155	0.0164897
741.233	0.0164394
741.311	0.0163066
741.389	0.0165261
741.467	0.0164286
741.545	0.0163317
741.623	0.0163866
741.701	0.0164671
741.780	0.0163206
741.858	0.0163409
741.936	0.0164214
742.014	0.0163861
742.092	0.0164175
742.170	0.0163616
742.248	0.0162860
742.326	0.0164470
742.405	0.0163224
742.483	0.0162809
742.561	0.0162070
742.639	0.0161833
742.717	0.0164633
742.795	0.0164110
742.873	0.0163956
742.951	0.0163583
743.030	0.0163097
743.108	0.0163576
743.186	0.0164184
743.264	0.0163632
743.342	0.0164320
743.420	0.0162753
743.498	0.0163746
743.576	0.0163418
743.655	0.0162339
743.733	0.0162587
743.811	0.0162189
743.889	0.0161970
743.967	0.0163163
744.045	0.0162490
744.123	0.0161217
744.201	0.0161546
744.280	0.0162961
744.358	0.0163023
744.436	0.0163032
744.514	0.0163463
744.592	0.0163573
744.670	0.0164065
744.748	0.0165800
744.826	0.0163747
744.905	0.0165391
744.983	0.0166112
745.061	0.0165048
745.139	0.0163367
745.217	0.0163563
745.295	0.0164247
745.373	0.0163803
745.451	0.0162830
745.530	0.0163162
745.608	0.0162134
745.686	0.0162499
745.764	0.0161548
745.842	0.0161594
745.920	0.0161874
745.998	0.0163157
746.076	0.0162924
746.155	0.0162707
746.233	0.0162209
746.311	0.0163086
746.389	0.0163741
746.467	0.0162933
746.545	0.0163282
746.623	0.0164322
746.701	0.0164317
746.780	0.0165252
746.858	0.0163779
746.936	0.0163489
747.014	0.0163671
747.092	0.0162473
747.170	0.0163760
747.248	0.0163137
747.326	0.0161944
747.405	0.0163224
747.483	0.0162053
747.561	0.0160056
747.639	0.0162272
747.717	0.0161260
747.795	0.0162293
747.873	0.0161917
747.951	0.0162528
748.030	0.0162816
748.108	0.0164303
748.186	0.0163849
748.264	0.0164505
748.342	0.0166103
748.420	0.0168327
748.498	0.0165505
748.576	0.0165736
748.655	0.0165089
748.733	0.0164326
748.811	0.0166170
748.889	0.0165175
748.967	0.0163675
749.045	0.0162560
749.123	0.0162936
749.201	0.0161804
749.280	0.0159965
749.358	0.0159740
749.436	0.0159214
749.514	0.0160211
749.592	0.0160218
749.670	0.0159924
749.748	0.0159055
749.826	0.0159424
749.905	0.0159904
749.983	0.0159007
750.061	0.0160193
750.139	0.0162191
750.217	0.0161726
750.295	0.0162305
750.373	0.0160931
750.451	0.0160043
750.530	0.0161088
750.608	0.0162383
750.686	0.0162041
750.764	0.0161988
750.842	0.0161677
750.920	0.0161871
750.998	0.0161121
751.076	0.0161017
751.155	0.0161712
751.233	0.0162542
751.311	0.0162855
751.389	0.0162201
751.467	0.0160925
751.545	0.0160313
751.623	0.0162099
751.701	0.0161866
751.780	0.0163393
751.858	0.0162101
751.936	0.0161833
752.014	0.0160338
752.092	0.0161308
752.170	0.0161728
752.248	0.0161839
752.326	0.0161413
752.405	0.0162394
752.483	0.0161551
752.561	0.0159784
752.639	0.0160812
752.717	0.0160947
752.795	0.0161233
752.873	0.0159158
752.951	0.0160087
753.030	0.0160774
753.108	0.0159872
753.186	0.0161310
753.264	0.0161710
753.342	0.0161072
753.420	0.0161411
753.498	0.0161172
753.576	0.0161842
753.655	0.0160584
753.733	0.0160701
753.811	0.0161514
753.889	0.0163470
753.967	0.0161338
754.045	0.0162477
754.123	0.0163921
754.201	0.0163065
754.280	0.0164690
754.358	0.0162663
754.436	0.0162506
754.514	0.0163985
754.592	0.0163123
754.670	0.0163258
754.748	0.0162884
754.826	0.0162835
754.905	0.0166935
754.983	0.0165449
755.061	0.0162073
755.139	0.0162938
755.217	0.0163037
755.295	0.0161308
755.373	0.0162998
755.451	0.0162630
755.530	0.0161995
755.608	0.0162612
755.686	0.0163683
755.764	0.0162585
755.842	0.0162151
755.920	0.0163243
755.998	0.0163120
756.076	0.0163188
756.155	0.0162303
756.233	0.0161681
756.311	0.0162344
756.389	0.0162212
756.467	0.0163197
756.545	0.0162735
756.623	0.0162718
756.701	0.0161404
756.780	0.0160802
756.858	0.0160871
756.936	0.0159866
757.014	0.0159283
757.092	0.0159373
757.170	0.0158868
757.248	0.0157726
757.326	0.0158701
757.405	0.0157838
757.483	0.0158199
757.561	0.0157733
757.639	0.0159220
757.717	0.0158282
757.795	0.0160103
757.873	0.0157992
757.951	0.0161453
758.030	0.0159646
758.108	0.0160849
758.186	0.0160923
758.264	0.0161533
758.342	0.0161713
758.420	0.0162869
758.498	0.0162067
758.576	0.0162756
758.655	0.0162852
758.733	0.0161472
758.811	0.0165117
758.889	0.0164240
758.967	0.0162434
759.045	0.0163461
759.123	0.0163642
759.201	0.0164161
759.280	0.0164288
759.358	0.0162783
759.436	0.0163376
759.514	0.0163474
759.592	0.0164319
759.670	0.0162939
759.748	0.0162292
759.826	0.0164500
759.905	0.0163538
759.983	0.0164273
760.061	0.0162876
760.139	0.0163098
760.217	0.0162126
760.295	0.0163157
760.373	0.0163406
760.451	0.0163483
760.530	0.0163200
760.608	0.0163168
760.686	0.0161955
760.764	0.0164120
760.842	0.0162637
760.920	0.0162957
760.998	0.0161857
761.076	0.0162238
761.155	0.0163323
761.233	0.0161275
761.311	0.0161108
761.389	0.0160777
761.467	0.0161008
761.545	0.0159891
761.623	0.0160683
761.701	0.0161935
761.780	0.0161474
761.858	0.0162373
761.936	0.0162339
762.014	0.0163110
762.092	0.0163355
762.170	0.0163515
762.248	0.0165182
762.326	0.0164220
762.405	0.0164265
762.483	0.0165438
762.561	0.0164671
762.639	0.0165951
762.717	0.0166115
762.795	0.0167042
762.873	0.0166689
762.951	0.0163804
763.030	0.0164612
763.108	0.0165359
763.186	0.0162917
763.264	0.0162584
763.342	0.0163394
763.420	0.0162068
763.498	0.0161799
763.576	0.0161027
763.655	0.0161510
763.733	0.0160983
763.811	0.0161205
763.889	0.0160880
763.967	0.0160163
764.045	0.0162511
764.123	0.0162404
764.201	0.0163396
764.280	0.0162407
764.358	0.0164276
764.436	0.0164660
764.514	0.0164503
764.592	0.0163949
764.670	0.0164101
764.748	0.0165694
764.826	0.0165215
764.905	0.0164804
764.983	0.0163722
765.061	0.0164849
765.139	0.0165269
765.217	0.0163554
765.295	0.0162611
765.373	0.0162761
765.451	0.0162377
765.530	0.0161192
765.608	0.0160955
765.686	0.0160751
765.764	0.0159824
765.842	0.0162049
765.920	0.0160804
765.998	0.0160432
766.076	0.0161179
766.155	0.0161284
766.233	0.0160351
766.311	0.0161874
766.389	0.0162593
766.467	0.0163638
766.545	0.0164183
766.623	0.0163738
766.701	0.0165645
766.780	0.0164522
766.858	0.0164935
766.936	0.0166183
767.014	0.0164969
767.092	0.0165518
767.170	0.0163467
767.248	0.0165407
767.326	0.0164606
767.405	0.0163935
767.483	0.0163251
767.561	0.0163841
767.639	0.0164584
767.717	0.0163747
767.795	0.0163433
767.873	0.0162682
767.951	0.0164663
768.030	0.0163441
768.108	0.0163464
768.186	0.0163522
768.264	0.0164012
768.342	0.0163840
768.420	0.0163279
768.498	0.0162339
768.576	0.0162183
768.655	0.0161337
768.733	0.0162616
768.811	0.0163242
768.889	0.0161913
768.967	0.0161282
769.045	0.0161253
769.123	0.0161597
769.201	0.0160205
769.280	0.0160599
769.358	0.0162685
769.436	0.0161713
769.514	0.0162355
769.592	0.0163325
769.670	0.0163536
769.748	0.0163457
769.826	0.0162324
769.905	0.0162312
769.983	0.0163897
770.061	0.0163882
770.139	0.0164050
770.217	0.0165569
770.295	0.0164551
770.373	0.0164319
770.451	0.0163741
770.530	0.0162758
770.608	0.0164996
770.686	0.0165081
770.764	0.0164120
770.842	0.0163365
770.920	0.0163096
770.998	0.0162133
771.076	0.0161050
771.155	0.0162014
771.233	0.0162331
771.311	0.0160966
771.389	0.0159811
771.467	0.0160161
771.545	0.0159810
771.623	0.0160261
771.701	0.0159652
771.780	0.0159588
771.858	0.0161035
771.936	0.0161937
772.014	0.0161493
772.092	0.0160929
772.170	0.0160869
772.248	0.0160254
772.326	0.0161969
772.405	0.0161092
772.483	0.0162651
772.561	0.0161921
772.639	0.0162093
772.717	0.0161869
772.795	0.0161889
772.873	0.0161573
772.951	0.0160344
773.030	0.0162709
773.108	0.0160551
773.186	0.0160384
773.264	0.0160972
773.342	0.0160180
773.420	0.0161470
773.498	0.0161063
773.576	0.0159425
773.655	0.0160614
773.733	0.0160917
773.811	0.0162283
773.889	0.0162083
773.967	0.0160310
774.045	0.0160790
774.123	0.0162974
774.201	0.0162906
774.280	0.0163106
774.358	0.0163466
774.436	0.0163494
774.514	0.0163584
774.592	0.0162827
774.670	0.0162956
774.748	0.0164148
774.826	0.0163040
774.905	0.0163004
774.983	0.0162750
775.061	0.0162404
775.139	0.0164239
775.217	0.0163556
775.295	0.0162003
775.373	0.0163351
775.451	0.0163017
775.530	0.0162480
775.608	0.0164380
775.686	0.0164028
775.764	0.0163043
775.842	0.0163416
775.920	0.0163078
775.998	0.0163468
776.076	0.0163651
776.155	0.0163135
776.233	0.0163297
776.311	0.0163817
776.389	0.0162810
776.467	0.0161820
776.545	0.0161189
776.623	0.0161567
776.701	0.0161268
776.780	0.0161604
776.858	0.0161491
776.936	0.0160128
777.014	0.0160988
777.092	0.0160065
777.170	0.0159471
777.248	0.0159876
777.326	0.0160205
777.405	0.0160098
777.483	0.0160824
777.561	0.0159689
777.639	0.0161481
777.717	0.0160794
777.795	0.0160592
777.873	0.0161190
777.951	0.0161106
778.030	0.0161066
778.108	0.0161703
778.186	0.0163295
778.264	0.0163341
778.342	0.0163595
778.420	0.0163322
778.498	0.0164383
778.576	0.0162061
778.655	0.0163179
778.733	0.0163255
778.811	0.0162094
778.889	0.0164038
778.967	0.0164383
779.045	0.0162920
779.123	0.0162551
779.201	0.0163007
779.280	0.0164100
779.358	0.0162486
779.436	0.0162936
779.514	0.0163802
779.592	0.0163785
779.670	0.0163974
779.748	0.0163995
779.826	0.0164754
779.905	0.0164349
779.983	0.0165358
780.061	0.0164174
780.139	0.0163871
780.217	0.0164020
780.295	0.0165266
780.373	0.0162973
780.451	0.0163124
780.530	0.0163715
780.608	0.0163829
780.686	0.0164151
780.764	0.0163764
780.842	0.0163383
780.920	0.0162927
780.998	0.0162976
781.076	0.0163453
781.155	0.0160674
781.233	0.0162215
781.311	0.0160762
781.389	0.0161340
781.467	0.0161613
781.545	0.0160428
781.623	0.0159464
781.701	0.0159533
781.780	0.0159441
781.858	0.0160204
781.936	0.0159636
782.014	0.0159167
782.092	0.0159795
782.170	0.0159399
782.248	0.0159022
782.326	0.0160493
782.405	0.0159885
782.483	0.0159360
782.561	0.0161223
782.639	0.0159803
782.717	0.0159676
782.795	0.0160303
782.873	0.0161050
782.951	0.0161443
783.030	0.0161212
783.108	0.0162304
783.186	0.0164101
783.264	0.0163537
783.342	0.0163500
783.420	0.0165368
783.498	0.0163448
783.576	0.0165317
783.655	0.0165840
783.733	0.0164483
783.811	0.0164999
783.889	0.0165810
783.967	0.0165757
784.045	0.0165891
784.123	0.0165056
784.201	0.0164451
784.280	0.0165904
784.358	0.0165178
784.436	0.0163800
784.514	0.0164175
784.592	0.0164091
784.670	0.0164558
784.748	0.0164142
784.826	0.0163937
784.905	0.0162754
784.983	0.0163346
785.061	0.0162741
785.139	0.0161033
785.217	0.0161530
785.295	0.0161358
785.373	0.0161880
785.451	0.0160962
785.530	0.0161355
785.608	0.0160960
785.686	0.0162107
785.764	0.0161008
785.842	0.0160627
785.920	0.0161384
785.998	0.0159589
786.076	0.0160806
786.155	0.0162883
786.233	0.0164466
786.311	0.0162075
786.389	0.0162318
786.467	0.0163345
786.545	0.0164800
786.623	0.0163485
786.701	0.0164324
786.780	0.0165645
786.858	0.0163670
786.936	0.0163073
787.014	0.0164880
787.092	0.0164522
787.170	0.0163147
787.248	0.0164359
787.326	0.0164492
787.405	0.0163908
787.483	0.0163731
787.561	0.0163668
787.639	0.0164038
787.717	0.0164725
787.795	0.0164040
787.873	0.0164144
787.951	0.0164420
788.030	0.0165201
788.108	0.0163999
788.186	0.0164700
788.264	0.0163893
788.342	0.0164111
788.420	0.0164172
788.498	0.0163898
788.576	0.0164171
788.655	0.0163968
788.733	0.0163558
788.811	0.0163673
788.889	0.0163404
788.967	0.0163027
789.045	0.0163937
789.123	0.0162515
789.201	0.0163792
789.280	0.0163219
789.358	0.0163214
789.436	0.0163198
789.514	0.0161543
789.592	0.0161694
789.670	0.0162103
789.748	0.0161993
789.826	0.0163004
789.905	0.0162127
789.983	0.0163447
790.061	0.0162104
790.139	0.0161478
790.217	0.0161776
790.295	0.0162576
790.373	0.0161906
790.451	0.0161765
790.530	0.0161600
790.608	0.0162482
790.686	0.0160719
790.764	0.0162478
790.842	0.0161073
790.920	0.0162868
790.998	0.0163536
791.076	0.0163397
791.155	0.0164018
791.233	0.0162901
791.311	0.0163216
791.389	0.0163303
791.467	0.0163246
791.545	0.0163457
791.623	0.0164347
791.701	0.0164429
791.780	0.0163674
791.858	0.0162722
791.936	0.0164560
792.014	0.0163837
792.092	0.0162145
792.170	0.0162389
792.248	0.0162275
792.326	0.0163325
792.405	0.0162657
792.483	0.0162019
792.561	0.0162917
792.639	0.0163100
792.717	0.0161417
792.795	0.0160931
792.873	0.0161190
792.951	0.0163001
793.030	0.0162595
793.108	0.0161484
793.186	0.0161025
793.264	0.0161819
793.342	0.0159949
793.420	0.0160421
793.498	0.0159550
793.576	0.0160402
793.655	0.0161546
793.733	0.0161335
793.811	0.0161502
793.889	0.0160977
793.967	0.0159698
794.045	0.0159721
794.123	0.0160059
794.201	0.0161404
794.280	0.0159354
794.358	0.0157646
794.436	0.0160281
794.514	0.0160654
794.592	0.0159295
794.670	0.0158605
794.748	0.0161439
794.826	0.0160838
794.905	0.0162012
794.983	0.0162195
795.061	0.0160738
795.139	0.0161852
795.217	0.0161932
795.295	0.0163857
795.373	0.0163414
795.451	0.0164075
795.530	0.0165926
795.608	0.0164812
795.686	0.0163548
795.764	0.0166003
795.842	0.0164744
795.920	0.0165178
795.998	0.0164658
796.076	0.0165714
796.155	0.0165530
796.233	0.0163991
796.311	0.0163640
796.389	0.0162822
796.467	0.0163396
796.545	0.0163177
796.623	0.0162619
796.701	0.0163367
796.780	0.0161091
796.858	0.0162766
796.936	0.0161719
797.014	0.0160079
797.092	0.0159991
797.170	0.0160326
797.248	0.0159134
797.326	0.0159935
797.405	0.0160661
797.483	0.0158855
797.561	0.0158987
797.639	0.0159563
797.717	0.0160278
797.795	0.0158478
797.873	0.0157393
797.951	0.0159647
798.030	0.0159159
798.108	0.0158694
798.186	0.0158199
798.264	0.0157646
798.342	0.0158356
798.420	0.0158094
798.498	0.0158540
798.576	0.0159276
798.655	0.0159703
798.733	0.0159763
798.811	0.0159990
798.889	0.0161337
798.967	0.0160974
799.045	0.0159993
799.123	0.0161366
799.201	0.0162739
799.280	0.0161825
799.358	0.0163636
799.436	0.0162334
799.514	0.0162522
799.592	0.0163575
799.670	0.0163009
799.748	0.0163740
799.826	0.0163844
799.905	0.0164143
799.983	0.0164340
800.061	0.0162704
800.139	0.0163149
800.217	0.0162573
800.295	0.0162593
800.373	0.0162126
800.451	0.0161840
800.530	0.0162172
800.608	0.0161937
800.686	0.0162148
800.764	0.0161611
800.842	0.0162038
800.920	0.0160589
800.998	0.0161444
801.076	0.0161734
801.155	0.0160593
801.233	0.0161539
801.311	0.0161906
801.389	0.0161246
801.467	0.0161854
801.545	0.0161671
801.623	0.0161261
801.701	0.0160317
801.780	0.0161480
801.858	0.0162395
801.936	0.0162128
802.014	0.0162313
802.092	0.0161114
802.170	0.0162440
802.248	0.0161361
802.326	0.0159739
802.405	0.0160313
802.483	0.0160851
802.561	0.0160574
802.639	0.0161180
802.717	0.0161633
802.795	0.0161087
802.873	0.0161797
802.951	0.0161382
803.030	0.0162982
803.108	0.0162257
803.186	0.0162936
803.264	0.0163322
803.342	0.0163628
803.420	0.0164554
803.498	0.0166174
803.576	0.0163490
803.655	0.0163145
803.733	0.0163760
803.811	0.0165205
803.889	0.0165108
803.967	0.0164750
804.045	0.0164240
804.123	0.0163545
804.201	0.0163960
804.280	0.0163047
804.358	0.0162545
804.436	0.0163015
804.514	0.0165213
804.592	0.0164926
804.670	0.0162585
804.748	0.0162997
804.826	0.0163243
804.905	0.0164695
804.983	0.0161791
805.061	0.0161797
805.139	0.0162424
805.217	0.0163432
805.295	0.0162535
805.373	0.0161500
805.451	0.0162209
805.530	0.0160956
805.608	0.0162292
805.686	0.0159754
805.764	0.0161109
805.842	0.0160297
805.920	0.0160745
805.998	0.0161263
806.076	0.0161269
806.155	0.0161062
806.233	0.0158897
806.311	0.0160316
806.389	0.0160265
806.467	0.0159916
806.545	0.0159537
806.623	0.0160184
806.701	0.0158803
806.780	0.0159884
806.858	0.0161819
806.936	0.0162336
807.014	0.0162401
807.092	0.0161102
807.170	0.0162297
807.248	0.0163027
807.326	0.0162768
807.405	0.0163412
807.483	0.0163668
807.561	0.0164725
807.639	0.0163367
807.717	0.0163601
807.795	0.0163818
807.873	0.0163969
807.951	0.0163744
808.030	0.0163882
808.108	0.0165050
808.186	0.0165779
808.264	0.0163245
808.342	0.0164122
808.420	0.0165131
808.498	0.0163638
808.576	0.0164275
808.655	0.0164227
808.733	0.0163731
808.811	0.0163434
808.889	0.0165991
808.967	0.0165437
809.045	0.0162613
809.123	0.0164816
809.201	0.0164093
809.280	0.0164814
809.358	0.0165761
809.436	0.0164514
809.514	0.0164200
809.592	0.0165536
809.670	0.0165147
809.748	0.0163570
809.826	0.0164137
809.905	0.0164088
809.983	0.0164085
810.061	0.0164124
810.139	0.0163968
810.217	0.0163725
810.295	0.0163402
810.373	0.0164581
810.451	0.0161517
810.530	0.0161921
810.608	0.0163081
810.686	0.0163334
810.764	0.0162431
810.842	0.0163257
810.920	0.0162887
810.998	0.0163475
811.076	0.0161980
811.155	0.0163020
811.233	0.0162542
811.311	0.0162196
811.389	0.0163139
811.467	0.0163898
811.545	0.0163526
811.623	0.0164194
811.701	0.0164073
811.780	0.0163052
811.858	0.0162756
811.936	0.0163367
812.014	0.0164767
812.092	0.0163430
812.170	0.0163761
812.248	0.0163077
812.326	0.0162570
812.405	0.0163283
812.483	0.0163966
812.561	0.0163759
812.639	0.0163221
812.717	0.0162556
812.795	0.0164734
812.873	0.0164388
812.951	0.0163023
813.030	0.0163653
813.108	0.0166169
813.186	0.0164841
813.264	0.0164116
813.342	0.0165225
813.420	0.0164960
813.498	0.0164374
813.576	0.0165345
813.655	0.0164864
813.733	0.0165004
813.811	0.0165294
813.889	0.0164567
813.967	0.0164923
814.045	0.0165401
814.123	0.0163679
814.201	0.0164409
814.280	0.0163774
814.358	0.0162568
814.436	0.0164025
814.514	0.0163497
814.592	0.0162839
814.670	0.0161549
814.748	0.0163210
814.826	0.0161164
814.905	0.0160450
814.983	0.0161079
815.061	0.0162323
815.139	0.0161877
815.217	0.0161015
815.295	0.0160174
815.373	0.0160971
815.451	0.0160278
815.530	0.0160009
815.608	0.0161461
815.686	0.0160435
815.764	0.0160278
815.842	0.0161924
815.920	0.0162341
815.998	0.0162019
816.076	0.0161021
816.155	0.0161256
816.233	0.0161635
816.311	0.0162115
816.389	0.0162766
816.467	0.0162535
816.545	0.0162075
816.623	0.0160688
816.701	0.0162177
816.780	0.0161521
816.858	0.0162043
816.936	0.0161966
817.014	0.0161125
817.092	0.0160558
817.170	0.0161317
817.248	0.0162418
817.326	0.0161230
817.405	0.0161113
817.483	0.0160512
817.561	0.0160011
817.639	0.0161436
817.717	0.0162057
817.795	0.0161612
817.873	0.0161533
817.951	0.0160679
818.030	0.0160682
818.108	0.0159034
818.186	0.0159380
818.264	0.0160751
818.342	0.0159618
818.420	0.0160680
818.498	0.0160758
818.576	0.0160208
818.655	0.0162180
818.733	0.0160907
818.811	0.0160519
818.889	0.0162012
818.967	0.0161101
819.045	0.0162028
819.123	0.0162354
819.201	0.0161719
819.280	0.0160493
819.358	0.0161885
819.436	0.0162600
819.514	0.0162119
819.592	0.0163048
819.670	0.0163839
819.748	0.0163306
819.826	0.0163892
819.905	0.0165126
819.983	0.0163445
820.061	0.0163258
820.139	0.0162748
820.217	0.0163387
820.295	0.0163682
820.373	0.0164177
820.451	0.0163778
820.530	0.0163716
820.608	0.0162638
820.686	0.0163689
820.764	0.0162063
820.842	0.0163578
820.920	0.0163984
820.998	0.0162510
821.076	0.0162717
821.155	0.0162691
821.233	0.0163993
821.311	0.0163258
821.389	0.0162737
821.467	0.0161857
821.545	0.0161902
821.623	0.0161742
821.701	0.0162191
821.780	0.0162538
821.858	0.0161118
821.936	0.0161440
822.014	0.0160461
822.092	0.0159888
822.170	0.0160014
822.248	0.0161346
822.326	0.0158857
822.405	0.0160104
822.483	0.0159888
822.561	0.0159293
822.639	0.0160339
822.717	0.0161792
822.795	0.0159994
822.873	0.0159823
822.951	0.0158884
823.030	0.0160493
823.108	0.0160475
823.186	0.0160633
823.264	0.0160521
823.342	0.0160059
823.420	0.0160883
823.498	0.0160557
823.576	0.0160522
823.655	0.0162138
823.733	0.0162124
823.811	0.0162437
823.889	0.0162145
823.967	0.0161398
824.045	0.0162395
824.123	0.0162685
824.201	0.0161342
824.280	0.0161803
824.358	0.0161724
824.436	0.0162075
824.514	0.0162894
824.592	0.0162730
824.670	0.0163409
824.748	0.0163441
824.826	0.0161823
824.905	0.0163268
824.983	0.0163123
825.061	0.0161475
825.139	0.0163636
825.217	0.0164349
825.295	0.0163747
825.373	0.0163590
825.451	0.0163151
825.530	0.0162818
825.608	0.0163089
825.686	0.0164394
825.764	0.0163982
825.842	0.0163381
825.920	0.0162241
825.998	0.0162531
826.076	0.0164927
826.155	0.0161948
826.233	0.0162807
826.311	0.0163406
826.389	0.0162959
826.467	0.0162631
826.545	0.0162137
826.623	0.0162354
826.701	0.0162177
826.780	0.0162500
826.858	0.0161337
826.936	0.0162344
827.014	0.0162009
827.092	0.0162508
827.170	0.0163421
827.248	0.0162968
827.326	0.0161366
827.405	0.0162943
827.483	0.0162097
827.561	0.0160916
827.639	0.0160833
827.717	0.0161762
827.795	0.0161369
827.873	0.0162072
827.951	0.0161328
828.030	0.0161362
828.108	0.0162873
828.186	0.0162725
828.264	0.0161774
828.342	0.0160582
828.420	0.0163255
828.498	0.0162421
828.576	0.0161328
828.655	0.0160756
828.733	0.0162260
828.811	0.0161502
828.889	0.0161740
828.967	0.0162553
829.045	0.0162009
829.123	0.0162366
829.201	0.0160724
829.280	0.0160834
829.358	0.0162980
829.436	0.0161781
829.514	0.0160072
829.592	0.0162386
829.670	0.0162746
829.748	0.0162761
829.826	0.0161809
829.905	0.0162160
829.983	0.0163963
830.061	0.0162833
830.139	0.0163329
830.217	0.0161565
830.295	0.0160542
830.373	0.0161040
830.451	0.0161993
830.530	0.0160944
830.608	0.0159442
830.686	0.0160783
830.764	0.0161163
830.842	0.0161073
830.920	0.0161317
830.998	0.0159892
831.076	0.0162192
831.155	0.0162349
831.233	0.0160961
831.311	0.0161308
831.389	0.0163464
831.467	0.0162436
831.545	0.0160896
831.623	0.0161141
831.701	0.0162228
831.780	0.0161745
831.858	0.0161695
831.936	0.0162352
832.014	0.0161543
832.092	0.0161848
832.170	0.0163014
832.248	0.0163316
832.326	0.0162031
832.405	0.0161064
832.483	0.0163705
832.561	0.0163534
832.639	0.0161655
832.717	0.0162918
832.795	0.0163493
832.873	0.0164158
832.951	0.0164520
833.030	0.0163398
833.108	0.0162637
833.186	0.0163184
833.264	0.0164035
833.342	0.0163608
833.420	0.0165318
833.498	0.0164323
833.576	0.0163649
833.655	0.0163379
833.733	0.0161839
833.811	0.0163917
833.889	0.0163153
833.967	0.0163140
834.045	0.0162433
834.123	0.0162022
834.201	0.0163428
834.280	0.0163186
834.358	0.0162413
834.436	0.0163171
834.514	0.0162119
834.592	0.0163296
834.670	0.0165101
834.748	0.0163316
834.826	0.0160986
834.905	0.0161926
834.983	0.0162215
835.061	0.0162833
835.139	0.0163251
835.217	0.0164295
835.295	0.0162643
835.373	0.0162721
835.451	0.0162238
835.530	0.0164052
835.608	0.0163100
835.686	0.0161190
835.764	0.0161632
835.842	0.0161243
835.920	0.0164823
835.998	0.0163080
836.076	0.0162805
836.155	0.0163158
836.233	0.0164018
836.311	0.0162567
836.389	0.0163428
836.467	0.0162732
836.545	0.0163104
836.623	0.0164169
836.701	0.0162384
836.780	0.0163919
836.858	0.0163922
836.936	0.0162946
837.014	0.0165044
837.092	0.0163314
837.170	0.0164416
837.248	0.0164249
837.326	0.0162505
837.405	0.0163857
837.483	0.0163318
837.561	0.0162947
837.639	0.0163279
837.717	0.0163877
837.795	0.0163200
837.873	0.0164132
837.951	0.0164919
838.030	0.0164110
838.108	0.0165253
838.186	0.0164221
838.264	0.0163466
838.342	0.0163909
838.420	0.0164088
838.498	0.0163410
838.576	0.0162513
838.655	0.0163599
838.733	0.0163779
838.811	0.0162383
838.889	0.0162606
838.967	0.0164078
839.045	0.0164243
839.123	0.0162606
839.201	0.0163175
839.280	0.0163472
839.358	0.0163145
839.436	0.0162704
839.514	0.0162560
839.592	0.0161787
839.670	0.0162077
839.748	0.0162704
839.826	0.0163091
839.905	0.0161679
839.983	0.0162530
840.061	0.0162103
840.139	0.0161584
840.217	0.0161740
840.295	0.0162508
840.373	0.0162979
840.451	0.0161971
840.530	0.0161230
840.608	0.0163135
840.686	0.0162878
840.764	0.0164802
840.842	0.0162847
840.920	0.0162659
840.998	0.0163483
841.076	0.0161639
841.155	0.0162704
841.233	0.0163240
841.311	0.0163540
841.389	0.0164711
841.467	0.0163694
841.545	0.0163354
841.623	0.0163739
841.701	0.0162830
841.780	0.0163952
841.858	0.0163812
841.936	0.0162789
842.014	0.0162512
842.092	0.0163039
842.170	0.0163042
842.248	0.0162337
842.326	0.0161734
842.405	0.0162119
842.483	0.0162569
842.561	0.0161713
842.639	0.0161137
842.717	0.0161641
842.795	0.0160859
842.873	0.0161965
842.951	0.0162111
843.030	0.0160911
843.108	0.0162532
843.186	0.0161795
843.264	0.0160873
843.342	0.0163700
843.420	0.0162105
843.498	0.0162802
843.576	0.0162665
843.655	0.0163408
843.733	0.0162810
843.811	0.0162488
843.889	0.0161261
843.967	0.0163988
844.045	0.0162821
844.123	0.0164569
844.201	0.0164022
844.280	0.0164356
844.358	0.0164469
844.436	0.0163446
844.514	0.0163458
844.592	0.0164345
844.670	0.0163657
844.748	0.0163258
844.826	0.0164400
844.905	0.0164529
844.983	0.0164561
845.061	0.0165082
845.139	0.0165014
845.217	0.0163906
845.295	0.0164318
845.373	0.0165211
845.451	0.0163123
845.530	0.0164397
845.608	0.0163965
845.686	0.0163554
845.764	0.0163107
845.842	0.0163358
845.920	0.0163285
845.998	0.0163721
846.076	0.0163534
846.155	0.0163984
846.233	0.0162680
846.311	0.0163090
846.389	0.0162371
846.467	0.0161587
846.545	0.0161539
846.623	0.0162605
846.701	0.0161143
846.780	0.0162782
846.858	0.0163557
846.936	0.0162906
847.014	0.0162679
847.092	0.0161674
847.170	0.0161685
847.248	0.0160723
847.326	0.0161351
847.405	0.0160736
847.483	0.0161472
847.561	0.0161511
847.639	0.0161025
847.717	0.0161372
847.795	0.0161141
847.873	0.0159889
847.951	0.0160990
848.030	0.0160937
848.108	0.0160583
848.186	0.0160155
848.264	0.0160925
848.342	0.0160152
848.420	0.0159903
848.498	0.0159971
848.576	0.0160593
848.655	0.0159414
848.733	0.0160560
848.811	0.0161257
848.889	0.0160487
848.967	0.0161410
849.045	0.0162554
849.123	0.0161539
849.201	0.0160143
849.280	0.0161094
849.358	0.0163065
849.436	0.0162395
849.514	0.0162966
849.592	0.0163137
849.670	0.0162515
849.748	0.0162482
849.826	0.0162512
849.905	0.0162641
849.983	0.0163709
850.061	0.0162902
850.139	0.0162821
850.217	0.0162493
850.295	0.0162505
850.373	0.0161958
850.451	0.0162668
850.530	0.0161609
850.608	0.0161672
850.686	0.0162477
850.764	0.0162022
850.842	0.0161926
850.920	0.0162331
850.998	0.0162017
851.076	0.0163466
851.155	0.0161005
851.233	0.0163358
851.311	0.0161408
851.389	0.0161491
851.467	0.0161653
851.545	0.0161740
851.623	0.0162723
851.701	0.0161664
851.780	0.0162238
851.858	0.0161978
851.936	0.0162534
852.014	0.0161216
852.092	0.0162888
852.170	0.0163151
852.248	0.0161034
852.326	0.0162326
852.405	0.0161345
852.483	0.0161270
852.561	0.0161988
852.639	0.0163539
852.717	0.0163111
852.795	0.0162781
852.873	0.0163768
852.951	0.0163240
853.030	0.0162270
853.108	0.0163905
853.186	0.0163869
853.264	0.0162716
853.342	0.0164030
853.420	0.0163762
853.498	0.0163322
853.576	0.0161590
853.655	0.0161887
853.733	0.0162560
853.811	0.0162622
853.889	0.0160461
853.967	0.0161022
854.045	0.0159946
854.123	0.0161038
854.201	0.0162794
854.280	0.0160484
854.358	0.0160989
854.436	0.0161451
854.514	0.0160412
854.592	0.0161737
854.670	0.0162909
854.748	0.0161438
854.826	0.0161967
854.905	0.0161670
854.983	0.0160500
855.061	0.0162344
855.139	0.0160907
855.217	0.0160604
855.295	0.0160735
855.373	0.0160664
855.451	0.0162355
855.530	0.0161089
855.608	0.0161337
855.686	0.0160117
855.764	0.0160760
855.842	0.0160714
855.920	0.0160367
855.998	0.0162582
856.076	0.0160230
856.155	0.0160396
856.233	0.0160914
856.311	0.0160614
856.389	0.0161060
856.467	0.0160311
856.545	0.0161415
856.623	0.0161602
856.701	0.0159787
856.780	0.0160651
856.858	0.0161759
856.936	0.0162104
857.014	0.0161391
857.092	0.0161044
857.170	0.0161937
857.248	0.0160838
857.326	0.0162078
857.405	0.0162046
857.483	0.0162337
857.561	0.0162959
857.639	0.0162634
857.717	0.0162479
857.795	0.0164310
857.873	0.0163799
857.951	0.0163676
858.030	0.0163863
858.108	0.0164149
858.186	0.0162606
858.264	0.0163631
858.342	0.0164230
858.420	0.0164766
858.498	0.0162943
858.576	0.0164420
858.655	0.0163207
858.733	0.0164162
858.811	0.0163695
858.889	0.0162792
858.967	0.0164575
859.045	0.0164523
859.123	0.0165276
859.201	0.0163208
859.280	0.0165091
859.358	0.0165380
859.436	0.0164359
859.514	0.0163081
859.592	0.0163578
859.670	0.0164778
859.748	0.0165504
859.826	0.0165269
859.905	0.0164565
859.983	0.0163609
860.061	0.0163850
860.139	0.0163991
860.217	0.0164098
860.295	0.0164895
860.373	0.0163704
860.451	0.0165297
860.530	0.0164688
860.608	0.0163372
860.686	0.0163121
860.764	0.0163117
860.842	0.0163603
860.920	0.0164038
860.998	0.0163879
861.076	0.0164886
861.155	0.0163287
861.233	0.0164499
861.311	0.0164315
861.389	0.0163874
861.467	0.0163905
861.545	0.0164365
861.623	0.0163632
861.701	0.0164594
861.780	0.0163740
861.858	0.0164570
861.936	0.0163364
862.014	0.0162840
862.092	0.0163746
862.170	0.0165336
862.248	0.0162962
862.326	0.0162814
862.405	0.0163713
862.483	0.0162847
862.561	0.0161118
862.639	0.0161603
862.717	0.0160901
862.795	0.0162485
862.873	0.0162810
862.951	0.0162872
863.030	0.0161758
863.108	0.0161549
863.186	0.0161818
863.264	0.0163052
863.342	0.0161923
863.420	0.0160521
863.498	0.0161956
863.576	0.0161615
863.655	0.0161540
863.733	0.0162145
863.811	0.0162411
863.889	0.0161012
863.967	0.0159758
864.045	0.0160857
864.123	0.0161145
864.201	0.0160776
864.280	0.0160387
864.358	0.0161385
864.436	0.0161334
864.514	0.0160277
864.592	0.0161162
864.670	0.0161083
864.748	0.0161801
864.826	0.0162679
864.905	0.0161594
864.983	0.0161268
865.061	0.0161854
865.139	0.0161829
865.217	0.0161590
865.295	0.0162900
865.373	0.0161391
865.451	0.0161752
865.530	0.0162040
865.608	0.0163232
865.686	0.0160806
865.764	0.0160654
865.842	0.0162491
865.920	0.0164253
865.998	0.0162471
866.076	0.0162515
866.155	0.0163358
866.233	0.0162080
866.311	0.0161778
866.389	0.0162623
866.467	0.0165001
866.545	0.0163737
866.623	0.0164552
866.701	0.0163938
866.780	0.0163873
866.858	0.0163808
866.936	0.0163425
867.014	0.0163676
867.092	0.0164468
867.170	0.0164935
867.248	0.0165106
867.326	0.0165662
867.405	0.0164806
867.483	0.0164516
867.561	0.0163609
867.639	0.0164719
867.717	0.0165936
867.795	0.0164893
867.873	0.0165034
867.951	0.0165615
868.030	0.0165641
868.108	0.0165055
868.186	0.0165115
868.264	0.0163656
868.342	0.0164829
868.420	0.0165760
868.498	0.0165251
868.576	0.0165100
868.655	0.0163922
868.733	0.0162940
868.811	0.0164758
868.889	0.0165153
868.967	0.0164002
869.045	0.0163605
869.123	0.0164227
869.201	0.0164587
869.280	0.0162673
869.358	0.0163914
869.436	0.0163345
869.514	0.0163300
869.592	0.0162812
869.670	0.0162973
869.748	0.0161967
869.826	0.0162347
869.905	0.0163054
869.983	0.0160950
870.061	0.0162828
870.139	0.0161274
870.217	0.0162598
870.295	0.0163918
870.373	0.0162715
870.451	0.0161298
870.530	0.0162087
870.608	0.0160925
870.686	0.0162518
870.764	0.0162900
870.842	0.0161485
870.920	0.0161388
870.998	0.0162779
871.076	0.0161954
871.155	0.0162061
871.233	0.0162694
871.311	0.0163051
871.389	0.0163237
871.467	0.0160737
871.545	0.0162167
871.623	0.0162874
871.701	0.0162423
871.780	0.0162315
871.858	0.0163757
871.936	0.0161805
872.014	0.0161695
872.092	0.0162476
872.170	0.0163046
872.248	0.0162351
872.326	0.0162148
872.405	0.0161961
872.483	0.0162506
872.561	0.0162141
872.639	0.0161687
872.717	0.0161577
872.795	0.0161861
872.873	0.0161627
872.951	0.0161912
873.030	0.0160344
873.108	0.0161086
873.186	0.0160413
873.264	0.0161746
873.342	0.0161369
873.420	0.0160800
873.498	0.0161009
873.576	0.0161060
873.655	0.0161533
873.733	0.0161549
873.811	0.0161000
873.889	0.0160754
873.967	0.0161166
874.045	0.0162364
874.123	0.0162794
874.201	0.0163151
874.280	0.0163576
874.358	0.0163186
874.436	0.0162836
874.514	0.0164220
874.592	0.0163818
874.670	0.0166053
874.748	0.0164360
874.826	0.0163356
874.905	0.0164494
874.983	0.0165673
875.061	0.0164545
875.139	0.0164831
875.217	0.0163598
875.295	0.0164244
875.373	0.0163663
875.451	0.0164391
875.530	0.0164387
875.608	0.0163332
875.686	0.0163034
875.764	0.0161642
875.842	0.0163284
875.920	0.0163772
875.998	0.0162513
876.076	0.0162344
876.155	0.0161657
876.233	0.0162177
876.311	0.0160137
876.389	0.0162555
876.467	0.0161103
876.545	0.0161860
876.623	0.0162846
876.701	0.0162676
876.780	0.0163039
876.858	0.0160612
876.936	0.0163628
877.014	0.0161858
877.092	0.0161600
877.170	0.0160846
877.248	0.0162186
877.326	0.0162152
877.405	0.0161376
877.483	0.0163497
877.561	0.0163128
877.639	0.0161977
877.717	0.0162393
877.795	0.0162215
877.873	0.0162008
877.951	0.0160533
878.030	0.0160815
878.108	0.0162653
878.186	0.0161830
878.264	0.0160049
878.342	0.0159050
878.420	0.0160226
878.498	0.0161087
878.576	0.0159896
878.655	0.0159752
878.733	0.0158746
878.811	0.0161185
878.889	0.0161126
878.967	0.0158447
879.045	0.0160337
879.123	0.0160254
879.201	0.0159228
879.280	0.0159148
879.358	0.0159346
879.436	0.0158849
879.514	0.0160434
879.592	0.0159089
879.670	0.0158855
879.748	0.0158702
879.826	0.0158347
879.905	0.0159942
879.983	0.0159951
880.061	0.0159156
880.139	0.0159933
880.217	0.0160938
880.295	0.0159570
880.373	0.0161151
880.451	0.0160930
880.530	0.0160323
880.608	0.0162878
880.686	0.0160888
880.764	0.0162679
880.842	0.0163663
880.920	0.0161473
880.998	0.0160595
881.076	0.0162372
881.155	0.0162427
881.233	0.0161891
881.311	0.0161958
881.389	0.0161321
881.467	0.0160733
881.545	0.0161294
881.623	0.0161972
881.701	0.0161995
881.780	0.0161350
881.858	0.0161632
881.936	0.0161533
882.014	0.0162696
882.092	0.0163126
882.170	0.0160585
882.248	0.0161984
882.326	0.0161914
882.405	0.0162638
882.483	0.0161208
882.561	0.0160470
882.639	0.0161262
882.717	0.0160736
882.795	0.0162000
882.873	0.0161437
882.951	0.0161951
883.030	0.0161465
883.108	0.0161699
883.186	0.0162124
883.264	0.0162244
883.342	0.0162424
883.420	0.0160989
883.498	0.0162237
883.576	0.0162515
883.655	0.0162333
883.733	0.0162923
883.811	0.0163151
883.889	0.0162656
883.967	0.0162605
884.045	0.0163922
884.123	0.0164151
884.201	0.0163473
884.280	0.0163783
884.358	0.0163632
884.436	0.0163646
884.514	0.0163462
884.592	0.0163886
884.670	0.0163583
884.748	0.0164398
884.826	0.0163931
884.905	0.0162551
884.983	0.0162884
885.061	0.0162022
885.139	0.0162634
885.217	0.0162579
885.295	0.0162154
885.373	0.0162036
885.451	0.0162811
885.530	0.0163339
885.608	0.0162926
885.686	0.0162704
885.764	0.0160845
885.842	0.0160628
885.920	0.0161208
885.998	0.0159911
886.076	0.0161091
886.155	0.0160969
886.233	0.0161317
886.311	0.0160719
886.389	0.0159937
886.467	0.0159221
886.545	0.0159435
886.623	0.0161429
886.701	0.0159893
886.780	0.0162409
886.858	0.0160093
886.936	0.0160619
887.014	0.0161292
887.092	0.0161200
887.170	0.0161488
887.248	0.0161671
887.326	0.0159845
887.405	0.0159528
887.483	0.0161452
887.561	0.0163007
887.639	0.0161398
887.717	0.0161894
887.795	0.0160911
887.873	0.0161767
887.951	0.0160954
888.030	0.0161987
888.108	0.0162619
888.186	0.0161542
888.264	0.0162061
888.342	0.0162826
888.420	0.0162054
888.498	0.0162410
888.576	0.0163721
888.655	0.0164051
888.733	0.0161736
888.811	0.0162618
888.889	0.0163602
888.967	0.0163817
889.045	0.0162321
889.123	0.0163095
889.201	0.0163302
889.280	0.0163380
889.358	0.0164177
889.436	0.0162589
889.514	0.0163235
889.592	0.0163897
889.670	0.0163714
889.748	0.0163121
889.826	0.0163820
889.905	0.0163278
889.983	0.0163182
890.061	0.0164033
890.139	0.0164908
890.217	0.0163759
890.295	0.0162883
890.373	0.0164685
890.451	0.0164915
890.530	0.0163797
890.608	0.0164066
890.686	0.0163184
890.764	0.0163219
890.842	0.0164594
890.920	0.0165585
890.998	0.0164838
891.076	0.0164757
891.155	0.0164076
891.233	0.0163794
891.311	0.0163791
891.389	0.0163646
891.467	0.0163384
891.545	0.0164368
891.623	0.0165367
891.701	0.0164249
891.780	0.0164566
891.858	0.0163566
891.936	0.0163476
892.014	0.0164031
892.092	0.0164540
892.170	0.0165180
892.248	0.0164815
892.326	0.0163388
892.405	0.0163720
892.483	0.0163795
892.561	0.0163721
892.639	0.0164212
892.717	0.0164482
892.795	0.0164885
892.873	0.0165475
892.951	0.0163877
893.030	0.0164781
893.108	0.0164718
893.186	0.0164038
893.264	0.0165401
893.342	0.0163486
893.420	0.0163603
893.498	0.0164967
893.576	0.0165908
893.655	0.0162252
893.733	0.0163974
893.811	0.0163751
893.889	0.0163157
893.967	0.0161707
894.045	0.0161348
894.123	0.0162021
894.201	0.0161658
894.280	0.0160334
894.358	0.0162731
894.436	0.0160973
894.514	0.0160098
894.592	0.0160736
894.670	0.0160761
894.748	0.0159093
894.826	0.0158958
894.905	0.0158984
894.983	0.0159840
895.061	0.0161388
895.139	0.0159533
895.217	0.0157195
895.295	0.0159152
895.373	0.0159835
895.451	0.0159455
895.530	0.0160448
895.608	0.0158814
895.686	0.0159427
895.764	0.0159702
895.842	0.0158952
895.920	0.0159755
895.998	0.0160336
896.076	0.0160661
896.155	0.0160319
896.233	0.0159575
896.311	0.0160380
896.389	0.0160055
896.467	0.0160456
896.545	0.0160797
896.623	0.0161489
896.701	0.0162205
896.780	0.0162067
896.858	0.0162474
896.936	0.0162032
897.014	0.0162181
897.092	0.0160871
897.170	0.0162853
897.248	0.0162440
897.326	0.0162679
897.405	0.0161244
897.483	0.0163264
897.561	0.0162527
897.639	0.0163493
897.717	0.0164171
897.795	0.0164252
897.873	0.0162492
897.951	0.0163453
898.030	0.0163359
898.108	0.0163203
898.186	0.0163493
898.264	0.0164356
898.342	0.0162115
898.420	0.0162511
898.498	0.0163356
898.576	0.0163228
898.655	0.0162638
898.733	0.0162769
898.811	0.0162664
898.889	0.0162729
898.967	0.0162613
899.045	0.0162447
899.123	0.0162785
899.201	0.0162560
899.280	0.0161682
899.358	0.0161085
899.436	0.0161528
899.514	0.0162334
899.592	0.0161391
899.670	0.0161123
899.748	0.0161920
899.826	0.0162006
899.905	0.0161227
899.983	0.0161150
900.061	0.0161977
900.139	0.0161679
900.217	0.0160909
900.295	0.0161140
900.373	0.0160798
900.451	0.0160940
900.530	0.0160298
900.608	0.0161862
900.686	0.0162086
900.764	0.0160877
900.842	0.0161378
900.920	0.0161126
900.998	0.0161422
901.076	0.0162488
901.155	0.0161819
901.233	0.0163007
901.311	0.0162033
901.389	0.0162693
901.467	0.0161340
901.545	0.0161987
901.623	0.0163821
901.701	0.0161503
901.780	0.0160186
901.858	0.0161843
901.936	0.0162357
902.014	0.0161559
902.092	0.0160632
902.170	0.0161152
902.248	0.0160648
902.326	0.0161214
902.405	0.0161534
902.483	0.0160599
902.561	0.0160524
902.639	0.0161016
902.717	0.0160133
902.795	0.0160632
902.873	0.0159286
902.951	0.0159842
903.030	0.0160068
903.108	0.0159719
903.186	0.0160658
903.264	0.0160516
903.342	0.0160056
903.420	0.0161102
903.498	0.0160449
903.576	0.0161372
903.655	0.0161318
903.733	0.0160431
903.811	0.0160082
903.889	0.0160440
903.967	0.0161469
904.045	0.0160764
904.123	0.0160758
904.201	0.0161555
904.280	0.0159804
904.358	0.0159563
904.436	0.0160985
904.514	0.0159264
904.592	0.0160048
904.670	0.0161259
904.748	0.0160185
904.826	0.0160207
904.905	0.0161700
904.983	0.0161739
905.061	0.0161272
905.139	0.0160951
905.217	0.0160320
905.295	0.0162227
905.373	0.0161523
905.451	0.0161435
905.530	0.0162349
905.608	0.0160074
905.686	0.0161434
905.764	0.0162410
905.842	0.0162162
905.920	0.0161626
905.998	0.0161602
906.076	0.0162111
906.155	0.0161123
906.233	0.0161569
906.311	0.0163137
906.389	0.0163194
906.467	0.0162617
906.545	0.0163195
906.623	0.0165047
906.701	0.0163560
906.780	0.0162570
906.858	0.0162936
906.936	0.0163274
907.014	0.0161656
907.092	0.0164104
907.170	0.0162361
907.248	0.0163210
907.326	0.0162085
907.405	0.0161424
907.483	0.0162304
907.561	0.0162666
907.639	0.0161203
907.717	0.0161961
907.795	0.0162119
907.873	0.0161746
907.951	0.0161381
908.030	0.0162308
908.108	0.0161530
908.186	0.0161359
908.264	0.0161695
908.342	0.0163309
908.420	0.0161927
908.498	0.0161964
908.576	0.0161759
908.655	0.0163198
908.733	0.0163070
908.811	0.0162164
908.889	0.0163388
908.967	0.0161868
909.045	0.0162345
909.123	0.0162640
909.201	0.0162690
909.280	0.0161926
909.358	0.0162951
909.436	0.0164571
909.514	0.0164608
909.592	0.0161228
909.670	0.0162665
909.748	0.0164288
909.826	0.0163358
909.905	0.0163794
909.983	0.0162819
910.061	0.0161845
910.139	0.0162521
910.217	0.0161600
910.295	0.0162112
910.373	0.0162650
910.451	0.0162980
910.530	0.0162256
910.608	0.0161990
910.686	0.0162214
910.764	0.0162783
910.842	0.0163195
910.920	0.0161259
910.998	0.0162058
911.076	0.0162170
911.155	0.0162692
911.233	0.0163162
911.311	0.0162130
911.389	0.0159947
911.467	0.0160487
911.545	0.0160682
911.623	0.0161199
911.701	0.0161103
911.780	0.0160809
911.858	0.0161493
911.936	0.0160624
912.014	0.0161307
912.092	0.0160638
912.170	0.0161153
912.248	0.0159482
912.326	0.0160851
912.405	0.0162857
912.483	0.0161083
912.561	0.0161070
912.639	0.0161028
912.717	0.0161431
912.795	0.0160452
912.873	0.0162006
912.951	0.0162061
913.030	0.0161104
913.108	0.0161720
913.186	0.0163878
913.264	0.0163728
913.342	0.0163239
913.420	0.0163441
913.498	0.0162305
913.576	0.0162119
913.655	0.0163033
913.733	0.0161526
913.811	0.0163305
913.889	0.0163222
913.967	0.0163297
914.045	0.0163025
914.123	0.0163311
914.201	0.0163331
914.280	0.0163649
914.358	0.0163712
914.436	0.0163657
914.514	0.0163439
914.592	0.0165424
914.670	0.0165520
914.748	0.0163087
914.826	0.0165459
914.905	0.0164585
914.983	0.0165318
915.061	0.0164227
915.139	0.0163457
915.217	0.0163107
915.295	0.0162959
915.373	0.0162804
915.451	0.0162706
915.530	0.0162981
915.608	0.0162244
915.686	0.0163283
915.764	0.0162624
915.842	0.0162114
915.920	0.0163603
915.998	0.0163103
916.076	0.0163082
916.155	0.0163242
916.233	0.0163780
916.311	0.0163360
916.389	0.0163528
916.467	0.0163369
916.545	0.0163419
916.623	0.0163916
916.701	0.0163953
916.780	0.0162541
916.858	0.0164437
916.936	0.0164297
917.014	0.0162706
917.092	0.0163604
917.170	0.0164379
917.248	0.0164335
917.326	0.0163895
917.405	0.0165072
917.483	0.0162952
917.561	0.0163933
917.639	0.0165762
917.717	0.0164224
917.795	0.0163818
917.873	0.0164004
917.951	0.0165622
918.030	0.0164323
918.108	0.0163173
918.186	0.0163467
918.264	0.0162324
918.342	0.0162814
918.420	0.0164079
918.498	0.0163084
918.576	0.0161359
918.655	0.0160526
918.733	0.0162917
918.811	0.0162959
918.889	0.0162889
918.967	0.0161386
919.045	0.0161053
919.123	0.0159295
919.201	0.0161435
919.280	0.0162081
919.358	0.0161734
919.436	0.0160927
919.514	0.0160722
919.592	0.0161452
919.670	0.0161575
919.748	0.0161207
919.826	0.0160983
919.905	0.0160334
919.983	0.0161415
920.061	0.0161665
920.139	0.0159839
920.217	0.0161224
920.295	0.0159921
920.373	0.0161066
920.451	0.0162340
920.530	0.0161871
920.608	0.0161014
920.686	0.0160471
920.764	0.0161379
920.842	0.0161086
920.920	0.0160513
920.998	0.0162377
921.076	0.0162739
921.155	0.0161012
921.233	0.0160860
921.311	0.0162663
921.389	0.0162872
921.467	0.0162650
921.545	0.0163210
921.623	0.0163567
921.701	0.0163584
921.780	0.0165036
921.858	0.0165439
921.936	0.0165089
922.014	0.0164240
922.092	0.0164119
922.170	0.0164229
922.248	0.0163877
922.326	0.0163321
922.405	0.0163805
922.483	0.0163243
922.561	0.0163590
922.639	0.0163602
922.717	0.0162817
922.795	0.0163531
922.873	0.0162778
922.951	0.0162885
923.030	0.0161425
923.108	0.0162883
923.186	0.0163966
923.264	0.0162966
923.342	0.0163165
923.420	0.0162895
923.498	0.0163104
923.576	0.0163139
923.655	0.0163567
923.733	0.0162757
923.811	0.0161890
923.889	0.0162061
923.967	0.0163942
924.045	0.0161488
924.123	0.0161509
924.201	0.0164410
924.280	0.0163330
924.358	0.0161793
924.436	0.0162837
924.514	0.0162019
924.592	0.0163278
924.670	0.0162431
924.748	0.0161334
924.826	0.0161828
924.905	0.0162492
924.983	0.0161672
925.061	0.0161990
925.139	0.0162152
925.217	0.0161940
925.295	0.0161024
925.373	0.0161131
925.451	0.0161726
925.530	0.0161776
925.608	0.0160751
925.686	0.0162077
925.764	0.0162663
925.842	0.0160253
925.920	0.0160806
925.998	0.0160566
926.076	0.0161706
926.155	0.0160970
926.233	0.0162136
926.311	0.0161159
926.389	0.0160784
926.467	0.0161708
926.545	0.0163153
926.623	0.0162235
926.701	0.0162209
926.780	0.0161706
926.858	0.0161497
926.936	0.0161947
927.014	0.0161551
927.092	0.0162766
927.170	0.0161775
927.248	0.0161971
927.326	0.0163079
927.405	0.0162145
927.483	0.0162909
927.561	0.0162094
927.639	0.0162010
927.717	0.0160808
927.795	0.0161478
927.873	0.0162081
927.951	0.0161272
928.030	0.0161744
928.108	0.0161908
928.186	0.0161388
928.264	0.0161540
928.342	0.0162214
928.420	0.0161988
928.498	0.0163979
928.576	0.0162223
928.655	0.0162321
928.733	0.0160198
928.811	0.0162328
928.889	0.0162423
928.967	0.0162254
929.045	0.0161469
929.123	0.0161239
929.201	0.0160856
929.280	0.0162474
929.358	0.0160949
929.436	0.0160729
929.514	0.0161785
929.592	0.0161952
929.670	0.0162180
929.748	0.0161726
929.826	0.0161606
929.905	0.0161086
929.983	0.0161151
930.061	0.0162600
930.139	0.0163144
930.217	0.0162048
930.295	0.0162288
930.373	0.0161702
930.451	0.0162579
930.530	0.0160315
930.608	0.0161585
930.686	0.0162866
930.764	0.0163425
930.842	0.0162874
930.920	0.0163088
930.998	0.0161849
931.076	0.0161087
931.155	0.0162927
931.233	0.0161217
931.311	0.0162590
931.389	0.0162740
931.467	0.0160791
931.545	0.0161192
931.623	0.0160931
931.701	0.0160889
931.780	0.0160341
931.858	0.0162733
931.936	0.0161469
932.014	0.0161233
932.092	0.0160600
932.170	0.0160970
932.248	0.0161703
932.326	0.0161565
932.405	0.0162032
932.483	0.0161313
932.561	0.0161317
932.639	0.0161240
932.717	0.0160667
932.795	0.0161414
932.873	0.0162082
932.951	0.0161160
933.030	0.0163200
933.108	0.0162181
933.186	0.0160825
933.264	0.0163705
933.342	0.0161861
933.420	0.0162315
933.498	0.0163859
933.576	0.0162592
933.655	0.0163451
933.733	0.0162946
933.811	0.0162669
933.889	0.0163396
933.967	0.0162971
934.045	0.0162563
934.123	0.0164577
934.201	0.0164455
934.280	0.0162662
934.358	0.0163464
934.436	0.0163912
934.514	0.0164007
934.592	0.0163366
934.670	0.0163635
934.748	0.0163873
934.826	0.0163007
934.905	0.0162905
934.983	0.0163202
935.061	0.0163401
935.139	0.0163218
935.217	0.0162119
935.295	0.0162699
935.373	0.0162777
935.451	0.0161237
935.530	0.0160736
935.608	0.0161411
935.686	0.0161894
935.764	0.0163638
935.842	0.0161543
935.920	0.0161140
935.998	0.0161575
936.076	0.0162913
936.155	0.0161629
936.233	0.0161982
936.311	0.0161301
936.389	0.0160691
936.467	0.0161645
936.545	0.0162670
936.623	0.0162888
936.701	0.0162196
936.780	0.0162648
936.858	0.0161904
936.936	0.0162148
937.014	0.0162078
937.092	0.0162199
937.170	0.0164104
937.248	0.0162296
937.326	0.0163069
937.405	0.0161908
937.483	0.0163086
937.561	0.0162401
937.639	0.0162286
937.717	0.0163520
937.795	0.0163218
937.873	0.0162678
937.951	0.0162394
938.030	0.0163614
938.108	0.0162833
938.186	0.0163205
938.264	0.0161800
938.342	0.0161663
938.420	0.0162181
938.498	0.0162719
938.576	0.0161978
938.655	0.0162682
938.733	0.0160891
938.811	0.0160679
938.889	0.0160427
938.967	0.0161417
939.045	0.0160933
939.123	0.0161449
939.201	0.0161502
939.280	0.0160577
939.358	0.0160120
939.436	0.0160973
939.514	0.0160535
939.592	0.0162437
939.670	0.0160992
939.748	0.0161907
939.826	0.0161058
939.905	0.0162753
939.983	0.0162784
940.061	0.0162640
940.139	0.0162988
940.217	0.0162639
940.295	0.0164098
940.373	0.0163593
940.451	0.0162748
940.530	0.0163568
940.608	0.0165073
940.686	0.0162435
940.764	0.0163368
940.842	0.0163827
940.920	0.0164029
940.998	0.0163268
941.076	0.0162915
941.155	0.0162758
941.233	0.0162549
941.311	0.0163078
941.389	0.0163860
941.467	0.0163248
941.545	0.0164056
941.623	0.0162471
941.701	0.0162451
941.780	0.0162583
941.858	0.0164862
941.936	0.0163865
942.014	0.0164204
942.092	0.0164088
942.170	0.0165382
942.248	0.0163266
942.326	0.0163335
942.405	0.0164633
942.483	0.0165627
942.561	0.0164668
942.639	0.0163525
942.717	0.0164302
942.795	0.0163312
942.873	0.0164473
942.951	0.0163187
943.030	0.0163792
943.108	0.0163027
943.186	0.0164687
943.264	0.0163327
943.342	0.0163774
943.420	0.0163042
943.498	0.0162810
943.576	0.0162745
943.655	0.0162933
943.733	0.0162752
943.811	0.0163323
943.889	0.0162905
943.967	0.0163324
944.045	0.0162688
944.123	0.0161932
944.201	0.0162532
944.280	0.0163366
944.358	0.0162846
944.436	0.0163530
944.514	0.0161993
944.592	0.0160870
944.670	0.0163474
944.748	0.0163171
944.826	0.0163049
944.905	0.0163109
944.983	0.0163956
945.061	0.0161982
945.139	0.0161317
945.217	0.0161148
945.295	0.0161961
945.373	0.0161880
945.451	0.0162816
945.530	0.0162395
945.608	0.0162136
945.686	0.0162900
945.764	0.0163668
945.842	0.0162466
945.920	0.0162367
945.998	0.0162945
946.076	0.0162107
946.155	0.0161554
946.233	0.0163407
946.311	0.0161650
946.389	0.0162592
946.467	0.0161919
946.545	0.0163274
946.623	0.0162107
946.701	0.0161681
946.780	0.0162402
946.858	0.0162600
946.936	0.0162215
947.014	0.0161972
947.092	0.0161717
947.170	0.0162412
947.248	0.0163639
947.326	0.0164260
947.405	0.0163554
947.483	0.0162679
947.561	0.0161595
947.639	0.0161789
947.717	0.0162599
947.795	0.0163080
947.873	0.0163718
947.951	0.0162842
948.030	0.0162679
948.108	0.0163589
948.186	0.0162180
948.264	0.0163621
948.342	0.0163396
948.420	0.0162831
948.498	0.0162874
948.576	0.0161802
948.655	0.0162205
948.733	0.0162349
948.811	0.0161600
948.889	0.0162933
948.967	0.0163647
949.045	0.0162333
949.123	0.0161775
949.201	0.0163923
949.280	0.0162085
949.358	0.0162785
949.436	0.0161938
949.514	0.0164241
949.592	0.0162826
949.670	0.0163239
949.748	0.0162693
949.826	0.0163685
949.905	0.0163416
949.983	0.0161784
950.061	0.0162488
950.139	0.0161960
950.217	0.0164328
950.295	0.0161226
950.373	0.0161193
950.451	0.0163693
950.530	0.0161554
950.608	0.0162510
950.686	0.0162055
950.764	0.0161552
950.842	0.0162398
950.920	0.0163281
950.998	0.0161289
951.076	0.0161526
951.155	0.0162592
951.233	0.0162329
951.311	0.0161779
951.389	0.0162261
951.467	0.0162781
951.545	0.0162514
951.623	0.0162261
951.701	0.0160435
951.780	0.0161590
951.858	0.0160932
951.936	0.0163246
952.014	0.0163015
952.092	0.0163144
952.170	0.0162054
952.248	0.0160547
952.326	0.0162254
952.405	0.0161009
952.483	0.0162630
952.561	0.0163022
952.639	0.0162827
952.717	0.0161851
952.795	0.0162317
952.873	0.0161470
952.951	0.0162114
953.030	0.0160885
953.108	0.0162459
953.186	0.0162861
953.264	0.0164439
953.342	0.0162671
953.420	0.0161300
953.498	0.0161634
953.576	0.0164015
953.655	0.0163610
953.733	0.0161888
953.811	0.0162239
953.889	0.0164185
953.967	0.0163142
954.045	0.0162523
954.123	0.0162405
954.201	0.0162645
954.280	0.0163570
954.358	0.0163436
954.436	0.0163119
954.514	0.0162411
954.592	0.0162826
954.670	0.0162601
954.748	0.0162468
954.826	0.0163191
954.905	0.0160990
954.983	0.0161669
955.061	0.0162305
955.139	0.0161400
955.217	0.0163504
955.295	0.0161600
955.373	0.0161226
955.451	0.0160695
955.530	0.0161964
955.608	0.0161864
955.686	0.0163158
955.764	0.0161275
955.842	0.0160838
955.920	0.0161765
955.998	0.0162905
956.076	0.0162164
956.155	0.0161485
956.233	0.0162995
956.311	0.0162220
956.389	0.0161715
956.467	0.0163638
956.545	0.0162909
956.623	0.0162901
956.701	0.0160902
956.780	0.0162217
956.858	0.0163230
956.936	0.0162930
957.014	0.0163966
957.092	0.0162798
957.170	0.0163120
957.248	0.0164637
957.326	0.0161510
957.405	0.0163661
957.483	0.0163809
957.561	0.0162875
957.639	0.0162054
957.717	0.0163313
957.795	0.0163361
957.873	0.0161799
957.951	0.0161684
958.030	0.0163410
958.108	0.0161849
958.186	0.0162614
958.264	0.0163135
958.342	0.0162382
958.420	0.0161981
958.498	0.0161712
958.576	0.0162444
958.655	0.0161399
958.733	0.0162840
958.811	0.0162009
958.889	0.0163493
958.967	0.0162126
959.045	0.0161926
959.123	0.0162727
959.201	0.0162456
959.280	0.0160946
959.358	0.0162390
959.436	0.0161173
959.514	0.0161533
959.592	0.0161681
959.670	0.0162623
959.748	0.0162867
959.826	0.0163203
959.905	0.0161369
