05/17/2022	16:31:02	Ver.	4.1	UNKNOWN
Optical Delay	639.989416	Delta X		0.078125	Sweeps	1	Scan Rate	0/0
Coordinates	Axis 1	NaN	Axis 2	NaN	Axis 3	NaN	Axis 4	NaN	Axis 5	NaN	Axis 6	0.000000
TX Power	0.000000	RX Power	0.000000

639.989	0.0155732
640.068	0.0156819
640.146	0.0156600
640.224	0.0156113
640.302	0.0155978
640.380	0.0155066
640.458	0.0155414
640.536	0.0155802
640.614	0.0156248
640.693	0.0156432
640.771	0.0156489
640.849	0.0156691
640.927	0.0155771
641.005	0.0156241
641.083	0.0156527
641.161	0.0155636
641.239	0.0155286
641.318	0.0156606
641.396	0.0156802
641.474	0.0156213
641.552	0.0155753
641.630	0.0155482
641.708	0.0157340
641.786	0.0155825
641.864	0.0155704
641.943	0.0155174
642.021	0.0155583
642.099	0.0155578
642.177	0.0155093
642.255	0.0155875
642.333	0.0155978
642.411	0.0157578
642.489	0.0155517
642.568	0.0155746
642.646	0.0155508
642.724	0.0155714
642.802	0.0157030
642.880	0.0155808
642.958	0.0156862
643.036	0.0155154
643.114	0.0155813
643.193	0.0155816
643.271	0.0155089
643.349	0.0156872
643.427	0.0154924
643.505	0.0155864
643.583	0.0156045
643.661	0.0155402
643.739	0.0155975
643.818	0.0156366
643.896	0.0155103
643.974	0.0157069
644.052	0.0156317
644.130	0.0155989
644.208	0.0156319
644.286	0.0155465
644.364	0.0156808
644.443	0.0155491
644.521	0.0154931
644.599	0.0156969
644.677	0.0157612
644.755	0.0155410
644.833	0.0154675
644.911	0.0156422
644.989	0.0156773
645.068	0.0156802
645.146	0.0156548
645.224	0.0155280
645.302	0.0154015
645.380	0.0157474
645.458	0.0156348
645.536	0.0155754
645.614	0.0156332
645.693	0.0155366
645.771	0.0155723
645.849	0.0156750
645.927	0.0156949
646.005	0.0155785
646.083	0.0155672
646.161	0.0156387
646.239	0.0156448
646.318	0.0156329
646.396	0.0155100
646.474	0.0155363
646.552	0.0156474
646.630	0.0155635
646.708	0.0156652
646.786	0.0157305
646.864	0.0157000
646.943	0.0155674
647.021	0.0154801
647.099	0.0155957
647.177	0.0156435
647.255	0.0155577
647.333	0.0156384
647.411	0.0157298
647.489	0.0155251
647.568	0.0158016
647.646	0.0158098
647.724	0.0155479
647.802	0.0155820
647.880	0.0155891
647.958	0.0155202
648.036	0.0155789
648.114	0.0157088
648.193	0.0156065
648.271	0.0155341
648.349	0.0155507
648.427	0.0156076
648.505	0.0157063
648.583	0.0155256
648.661	0.0155306
648.739	0.0155804
648.818	0.0156007
648.896	0.0156194
648.974	0.0156017
649.052	0.0156422
649.130	0.0157420
649.208	0.0156459
649.286	0.0156074
649.364	0.0156894
649.443	0.0156688
649.521	0.0157398
649.599	0.0155686
649.677	0.0156108
649.755	0.0157442
649.833	0.0157077
649.911	0.0155418
649.989	0.0155825
650.068	0.0155017
650.146	0.0156313
650.224	0.0155852
650.302	0.0156613
650.380	0.0156257
650.458	0.0155657
650.536	0.0156419
650.614	0.0156870
650.693	0.0155387
650.771	0.0156372
650.849	0.0155677
650.927	0.0155894
651.005	0.0156572
651.083	0.0155297
651.161	0.0156992
651.239	0.0153532
651.318	0.0154951
651.396	0.0154863
651.474	0.0156084
651.552	0.0156946
651.630	0.0157553
651.708	0.0156525
651.786	0.0154419
651.864	0.0156180
651.943	0.0156746
652.021	0.0156082
652.099	0.0156518
652.177	0.0157432
652.255	0.0156233
652.333	0.0155603
652.411	0.0155983
652.489	0.0155743
652.568	0.0156109
652.646	0.0155937
652.724	0.0156990
652.802	0.0156118
652.880	0.0155393
652.958	0.0155431
653.036	0.0156556
653.114	0.0155599
653.193	0.0157061
653.271	0.0156618
653.349	0.0156809
653.427	0.0156024
653.505	0.0155540
653.583	0.0155526
653.661	0.0155220
653.739	0.0156027
653.818	0.0155440
653.896	0.0154763
653.974	0.0157079
654.052	0.0155822
654.130	0.0155908
654.208	0.0156418
654.286	0.0155618
654.364	0.0155905
654.443	0.0156185
654.521	0.0157191
654.599	0.0155756
654.677	0.0155549
654.755	0.0156394
654.833	0.0156992
654.911	0.0155392
654.989	0.0156075
655.068	0.0157020
655.146	0.0156331
655.224	0.0155975
655.302	0.0156955
655.380	0.0156416
655.458	0.0157072
655.536	0.0155821
655.614	0.0156737
655.693	0.0156628
655.771	0.0155423
655.849	0.0156141
655.927	0.0155754
656.005	0.0157104
656.083	0.0156754
656.161	0.0155169
656.239	0.0156149
656.318	0.0155750
656.396	0.0156939
656.474	0.0156537
656.552	0.0155400
656.630	0.0155059
656.708	0.0155619
656.786	0.0155372
656.864	0.0155421
656.943	0.0155124
657.021	0.0155033
657.099	0.0156555
657.177	0.0156550
657.255	0.0155600
657.333	0.0157262
657.411	0.0155205
657.489	0.0154066
657.568	0.0155607
657.646	0.0155153
657.724	0.0155197
657.802	0.0156336
657.880	0.0155563
657.958	0.0155798
658.036	0.0154881
658.114	0.0155077
658.193	0.0156241
658.271	0.0154449
658.349	0.0154142
658.427	0.0156187
658.505	0.0157011
658.583	0.0155582
658.661	0.0154773
658.739	0.0154357
658.818	0.0155776
658.896	0.0155037
658.974	0.0155856
659.052	0.0157584
659.130	0.0155772
659.208	0.0155223
659.286	0.0156058
659.364	0.0155968
659.443	0.0154623
659.521	0.0155034
659.599	0.0155888
659.677	0.0156969
659.755	0.0155800
659.833	0.0155204
659.911	0.0154313
659.989	0.0154805
660.068	0.0156715
660.146	0.0155810
660.224	0.0156389
660.302	0.0156915
660.380	0.0156225
660.458	0.0155189
660.536	0.0156268
660.614	0.0156335
660.693	0.0156292
660.771	0.0156757
660.849	0.0156235
660.927	0.0155433
661.005	0.0155672
661.083	0.0156424
661.161	0.0156058
661.239	0.0156470
661.318	0.0155195
661.396	0.0155810
661.474	0.0155269
661.552	0.0156254
661.630	0.0156730
661.708	0.0154891
661.786	0.0156017
661.864	0.0156314
661.943	0.0156853
662.021	0.0157214
662.099	0.0156577
662.177	0.0155788
662.255	0.0155232
662.333	0.0156210
662.411	0.0155681
662.489	0.0157727
662.568	0.0156414
662.646	0.0155471
662.724	0.0155725
662.802	0.0155191
662.880	0.0155844
662.958	0.0155643
663.036	0.0155946
663.114	0.0156123
663.193	0.0155845
663.271	0.0156596
663.349	0.0157037
663.427	0.0154926
663.505	0.0156012
663.583	0.0153967
663.661	0.0155831
663.739	0.0156568
663.818	0.0156743
663.896	0.0156412
663.974	0.0156200
664.052	0.0155636
664.130	0.0154048
664.208	0.0155898
664.286	0.0156368
664.364	0.0156345
664.443	0.0154020
664.521	0.0155306
664.599	0.0156098
664.677	0.0156435
664.755	0.0156711
664.833	0.0155719
664.911	0.0157323
664.989	0.0155325
665.068	0.0154184
665.146	0.0157553
665.224	0.0155889
665.302	0.0156701
665.380	0.0155326
665.458	0.0154874
665.536	0.0156147
665.614	0.0156486
665.693	0.0156410
665.771	0.0155510
665.849	0.0156640
665.927	0.0155493
666.005	0.0154978
666.083	0.0156452
666.161	0.0155482
666.239	0.0156245
666.318	0.0156525
666.396	0.0155600
666.474	0.0155750
666.552	0.0155564
666.630	0.0155903
666.708	0.0156277
666.786	0.0156107
666.864	0.0156232
666.943	0.0156907
667.021	0.0154655
667.099	0.0156190
667.177	0.0156937
667.255	0.0156920
667.333	0.0155952
667.411	0.0156769
667.489	0.0156818
667.568	0.0155358
667.646	0.0157523
667.724	0.0156580
667.802	0.0156099
667.880	0.0156950
667.958	0.0156794
668.036	0.0156001
668.114	0.0157850
668.193	0.0155471
668.271	0.0155843
668.349	0.0156016
668.427	0.0156067
668.505	0.0156274
668.583	0.0155667
668.661	0.0155141
668.739	0.0155433
668.818	0.0155531
668.896	0.0156389
668.974	0.0155916
669.052	0.0156013
669.130	0.0156087
669.208	0.0156393
669.286	0.0156754
669.364	0.0156139
669.443	0.0155841
669.521	0.0156444
669.599	0.0155134
669.677	0.0155910
669.755	0.0155186
669.833	0.0155372
669.911	0.0154934
669.989	0.0155036
670.068	0.0155853
670.146	0.0156409
670.224	0.0154946
670.302	0.0154993
670.380	0.0156314
670.458	0.0155556
670.536	0.0155586
670.614	0.0154162
670.693	0.0156003
670.771	0.0155737
670.849	0.0154895
670.927	0.0155477
671.005	0.0155666
671.083	0.0155900
671.161	0.0154640
671.239	0.0154110
671.318	0.0154630
671.396	0.0154929
671.474	0.0155242
671.552	0.0156526
671.630	0.0154867
671.708	0.0155148
671.786	0.0155437
671.864	0.0155779
671.943	0.0155056
672.021	0.0155826
672.099	0.0156551
672.177	0.0154857
672.255	0.0154391
672.333	0.0154706
672.411	0.0155883
672.489	0.0155791
672.568	0.0156606
672.646	0.0155635
672.724	0.0155290
672.802	0.0155092
672.880	0.0154649
672.958	0.0156133
673.036	0.0156339
673.114	0.0155083
673.193	0.0154691
673.271	0.0155505
673.349	0.0156191
673.427	0.0155196
673.505	0.0155809
673.583	0.0154479
673.661	0.0154916
673.739	0.0154964
673.818	0.0156528
673.896	0.0156023
673.974	0.0154539
674.052	0.0155286
674.130	0.0155855
674.208	0.0155714
674.286	0.0156051
674.364	0.0154481
674.443	0.0154758
674.521	0.0154997
674.599	0.0156379
674.677	0.0155301
674.755	0.0155553
674.833	0.0156004
674.911	0.0155915
674.989	0.0155454
675.068	0.0155566
675.146	0.0155958
675.224	0.0155611
675.302	0.0155695
675.380	0.0156327
675.458	0.0157148
675.536	0.0156256
675.614	0.0155978
675.693	0.0157077
675.771	0.0157333
675.849	0.0156561
675.927	0.0156631
676.005	0.0157763
676.083	0.0157193
676.161	0.0156294
676.239	0.0157681
676.318	0.0155785
676.396	0.0155106
676.474	0.0156782
676.552	0.0157581
676.630	0.0157065
676.708	0.0156107
676.786	0.0156656
676.864	0.0157319
676.943	0.0157394
677.021	0.0157157
677.099	0.0157237
677.177	0.0156499
677.255	0.0156052
677.333	0.0156546
677.411	0.0156909
677.489	0.0158104
677.568	0.0157874
677.646	0.0156308
677.724	0.0157298
677.802	0.0156848
677.880	0.0156927
677.958	0.0158024
678.036	0.0158449
678.114	0.0156227
678.193	0.0156506
678.271	0.0156607
678.349	0.0157504
678.427	0.0157333
678.505	0.0158186
678.583	0.0157915
678.661	0.0156430
678.739	0.0156208
678.818	0.0156926
678.896	0.0156960
678.974	0.0157664
679.052	0.0157351
679.130	0.0158205
679.208	0.0157481
679.286	0.0156380
679.364	0.0156856
679.443	0.0155918
679.521	0.0156229
679.599	0.0158201
679.677	0.0156834
679.755	0.0157052
679.833	0.0156689
679.911	0.0155951
679.989	0.0157114
680.068	0.0156303
680.146	0.0157214
680.224	0.0156901
680.302	0.0157107
680.380	0.0155760
680.458	0.0156233
680.536	0.0156556
680.614	0.0155723
680.693	0.0156306
680.771	0.0156631
680.849	0.0157018
680.927	0.0156700
681.005	0.0156513
681.083	0.0156949
681.161	0.0155386
681.239	0.0156927
681.318	0.0155721
681.396	0.0156213
681.474	0.0155118
681.552	0.0156574
681.630	0.0157413
681.708	0.0156630
681.786	0.0154219
681.864	0.0155022
681.943	0.0155777
682.021	0.0156095
682.099	0.0155423
682.177	0.0156466
682.255	0.0155337
682.333	0.0154549
682.411	0.0157412
682.489	0.0155582
682.568	0.0155225
682.646	0.0155194
682.724	0.0156393
682.802	0.0155708
682.880	0.0156059
682.958	0.0156592
683.036	0.0155587
683.114	0.0156031
683.193	0.0155904
683.271	0.0155812
683.349	0.0157233
683.427	0.0156597
683.505	0.0155773
683.583	0.0154840
683.661	0.0155045
683.739	0.0156125
683.818	0.0155802
683.896	0.0156052
683.974	0.0158427
684.052	0.0156764
684.130	0.0155688
684.208	0.0156596
684.286	0.0156843
684.364	0.0156531
684.443	0.0155344
684.521	0.0157010
684.599	0.0155971
684.677	0.0156524
684.755	0.0156546
684.833	0.0154588
684.911	0.0154905
684.989	0.0157011
685.068	0.0155186
685.146	0.0155706
685.224	0.0155795
685.302	0.0156937
685.380	0.0158681
685.458	0.0155960
685.536	0.0155738
685.614	0.0156193
685.693	0.0156027
685.771	0.0155347
685.849	0.0156228
685.927	0.0155383
686.005	0.0155727
686.083	0.0156268
686.161	0.0157156
686.239	0.0156796
686.318	0.0157016
686.396	0.0156051
686.474	0.0155465
686.552	0.0157120
686.630	0.0156852
686.708	0.0155862
686.786	0.0156675
686.864	0.0156065
686.943	0.0155711
687.021	0.0156387
687.099	0.0156682
687.177	0.0155043
687.255	0.0155832
687.333	0.0156604
687.411	0.0156879
687.489	0.0156214
687.568	0.0156116
687.646	0.0156549
687.724	0.0155996
687.802	0.0154932
687.880	0.0155917
687.958	0.0155894
688.036	0.0154993
688.114	0.0155521
688.193	0.0155878
688.271	0.0154825
688.349	0.0156529
688.427	0.0157600
688.505	0.0156454
688.583	0.0155548
688.661	0.0156791
688.739	0.0157268
688.818	0.0156212
688.896	0.0159370
688.974	0.0158553
689.052	0.0157390
689.130	0.0156047
689.208	0.0157294
689.286	0.0155508
689.364	0.0156232
689.443	0.0154385
689.521	0.0155547
689.599	0.0154605
689.677	0.0153283
689.755	0.0155460
689.833	0.0155931
689.911	0.0155356
689.989	0.0154890
690.068	0.0156461
690.146	0.0156714
690.224	0.0159052
690.302	0.0159702
690.380	0.0160410
690.458	0.0160467
690.536	0.0162245
690.614	0.0161094
690.693	0.0160390
690.771	0.0160404
690.849	0.0160238
690.927	0.0158248
691.005	0.0156908
691.083	0.0156037
691.161	0.0153496
691.239	0.0153334
691.318	0.0152083
691.396	0.0150835
691.474	0.0151183
691.552	0.0151353
691.630	0.0150169
691.708	0.0151149
691.786	0.0149912
691.864	0.0151841
691.943	0.0152934
692.021	0.0153616
692.099	0.0154753
692.177	0.0155962
692.255	0.0157288
692.333	0.0157739
692.411	0.0158434
692.489	0.0159216
692.568	0.0160534
692.646	0.0160532
692.724	0.0160369
692.802	0.0161973
692.880	0.0160013
692.958	0.0159689
693.036	0.0160799
693.114	0.0160888
693.193	0.0159132
693.271	0.0157873
693.349	0.0158076
693.427	0.0157285
693.505	0.0156001
693.583	0.0154686
693.661	0.0154503
693.739	0.0154288
693.818	0.0152942
693.896	0.0151808
693.974	0.0152161
694.052	0.0153150
694.130	0.0153368
694.208	0.0152603
694.286	0.0152193
694.364	0.0153241
694.443	0.0153246
694.521	0.0152786
694.599	0.0153983
694.677	0.0155405
694.755	0.0155649
694.833	0.0153693
694.911	0.0155647
694.989	0.0155618
695.068	0.0157201
695.146	0.0157847
695.224	0.0158492
695.302	0.0158464
695.380	0.0159193
695.458	0.0158681
695.536	0.0158138
695.614	0.0159175
695.693	0.0158059
695.771	0.0157772
695.849	0.0156945
695.927	0.0156897
696.005	0.0155548
696.083	0.0155481
696.161	0.0155992
696.239	0.0155856
696.318	0.0154932
696.396	0.0155084
696.474	0.0154332
696.552	0.0154583
696.630	0.0154877
696.708	0.0153690
696.786	0.0155540
696.864	0.0156312
696.943	0.0156563
697.021	0.0156161
697.099	0.0157704
697.177	0.0158688
697.255	0.0157197
697.333	0.0158472
697.411	0.0158939
697.489	0.0158540
697.568	0.0158022
697.646	0.0157217
697.724	0.0155556
697.802	0.0155425
697.880	0.0153432
697.958	0.0152820
698.036	0.0151720
698.114	0.0151109
698.193	0.0150334
698.271	0.0150890
698.349	0.0149104
698.427	0.0149596
698.505	0.0150858
698.583	0.0151669
698.661	0.0150330
698.739	0.0150877
698.818	0.0152637
698.896	0.0152481
698.974	0.0154786
699.052	0.0156039
699.130	0.0159574
699.208	0.0159599
699.286	0.0162280
699.364	0.0161224
699.443	0.0163520
699.521	0.0163965
699.599	0.0163699
699.677	0.0164852
699.755	0.0162827
699.833	0.0163729
699.911	0.0161550
699.989	0.0161129
700.068	0.0159879
700.146	0.0156555
700.224	0.0156475
700.302	0.0155379
700.380	0.0153500
700.458	0.0152528
700.536	0.0151631
700.614	0.0149732
700.693	0.0149466
700.771	0.0150085
700.849	0.0150372
700.927	0.0150573
701.005	0.0151263
701.083	0.0151407
701.161	0.0153099
701.239	0.0153903
701.318	0.0154205
701.396	0.0155842
701.474	0.0157866
701.552	0.0157049
701.630	0.0158084
701.708	0.0159650
701.786	0.0158448
701.864	0.0159244
701.943	0.0158179
702.021	0.0159309
702.099	0.0157461
702.177	0.0157823
702.255	0.0156309
702.333	0.0156718
702.411	0.0155868
702.489	0.0155318
702.568	0.0154929
702.646	0.0156613
702.724	0.0156232
702.802	0.0155011
702.880	0.0154429
702.958	0.0153081
703.036	0.0156090
703.114	0.0156147
703.193	0.0156859
703.271	0.0156375
703.349	0.0156629
703.427	0.0157833
703.505	0.0157806
703.583	0.0157236
703.661	0.0158024
703.739	0.0157504
703.818	0.0158157
703.896	0.0158761
703.974	0.0158118
704.052	0.0158008
704.130	0.0156426
704.208	0.0156367
704.286	0.0157088
704.364	0.0155800
704.443	0.0154857
704.521	0.0155537
704.599	0.0155029
704.677	0.0154331
704.755	0.0153830
704.833	0.0154664
704.911	0.0153584
704.989	0.0155141
705.068	0.0155367
705.146	0.0154961
705.224	0.0157402
705.302	0.0156914
705.380	0.0157355
705.458	0.0156919
705.536	0.0157288
705.614	0.0157827
705.693	0.0159134
705.771	0.0158175
705.849	0.0159033
705.927	0.0159032
706.005	0.0160630
706.083	0.0160548
706.161	0.0158534
706.239	0.0159948
706.318	0.0159672
706.396	0.0159373
706.474	0.0157762
706.552	0.0156171
706.630	0.0156715
706.708	0.0156001
706.786	0.0154871
706.864	0.0152267
706.943	0.0151472
707.021	0.0151509
707.099	0.0150187
707.177	0.0149256
707.255	0.0150648
707.333	0.0150124
707.411	0.0150948
707.489	0.0151972
707.568	0.0152754
707.646	0.0153588
707.724	0.0153716
707.802	0.0153197
707.880	0.0155583
707.958	0.0156062
708.036	0.0155719
708.114	0.0156409
708.193	0.0157397
708.271	0.0160849
708.349	0.0159023
708.427	0.0159180
708.505	0.0159972
708.583	0.0159798
708.661	0.0158449
708.739	0.0158209
708.818	0.0157162
708.896	0.0157200
708.974	0.0154631
709.052	0.0153914
709.130	0.0151736
709.208	0.0152031
709.286	0.0151191
709.364	0.0149114
709.443	0.0150765
709.521	0.0150628
709.599	0.0151728
709.677	0.0151817
709.755	0.0152425
709.833	0.0155144
709.911	0.0156454
709.989	0.0157550
710.068	0.0158845
710.146	0.0158451
710.224	0.0159601
710.302	0.0163023
710.380	0.0162502
710.458	0.0163084
710.536	0.0163046
710.614	0.0163023
710.693	0.0161893
710.771	0.0161366
710.849	0.0159949
710.927	0.0158596
711.005	0.0158006
711.083	0.0155010
711.161	0.0153615
711.239	0.0152938
711.318	0.0151729
711.396	0.0150861
711.474	0.0150144
711.552	0.0149195
711.630	0.0150879
711.708	0.0151793
711.786	0.0152325
711.864	0.0154230
711.943	0.0156596
712.021	0.0156820
712.099	0.0158436
712.177	0.0160683
712.255	0.0163761
712.333	0.0162123
712.411	0.0165264
712.489	0.0165990
712.568	0.0164048
712.646	0.0164465
712.724	0.0163441
712.802	0.0162137
712.880	0.0162607
712.958	0.0159921
713.036	0.0159168
713.114	0.0156513
713.193	0.0154898
713.271	0.0152633
713.349	0.0152531
713.427	0.0149995
713.505	0.0149176
713.583	0.0148685
713.661	0.0149966
713.739	0.0151007
713.818	0.0151121
713.896	0.0152520
713.974	0.0153314
714.052	0.0153689
714.130	0.0154498
714.208	0.0155200
714.286	0.0155731
714.364	0.0156352
714.443	0.0155915
714.521	0.0154414
714.599	0.0155418
714.677	0.0156404
714.755	0.0158938
714.833	0.0158850
714.911	0.0158997
714.989	0.0158887
715.068	0.0158928
715.146	0.0159206
715.224	0.0160196
715.302	0.0158596
715.380	0.0158742
715.458	0.0158895
715.536	0.0157394
715.614	0.0155241
715.693	0.0155077
715.771	0.0153131
715.849	0.0152254
715.927	0.0151940
716.005	0.0150774
716.083	0.0151346
716.161	0.0151319
716.239	0.0151154
716.318	0.0150860
716.396	0.0152697
716.474	0.0153909
716.552	0.0153980
716.630	0.0156117
716.708	0.0158662
716.786	0.0157481
716.864	0.0159647
716.943	0.0159675
717.021	0.0160430
717.099	0.0159957
717.177	0.0159251
717.255	0.0159601
717.333	0.0159283
717.411	0.0156757
717.489	0.0154418
717.568	0.0155435
717.646	0.0154494
717.724	0.0152632
717.802	0.0152032
717.880	0.0153517
717.958	0.0152089
718.036	0.0152187
718.114	0.0153769
718.193	0.0154170
718.271	0.0155660
718.349	0.0155856
718.427	0.0157784
718.505	0.0158450
718.583	0.0156916
718.661	0.0159853
718.739	0.0162425
718.818	0.0158684
718.896	0.0160246
718.974	0.0158229
719.052	0.0157259
719.130	0.0158957
719.208	0.0156663
719.286	0.0154907
719.364	0.0156465
719.443	0.0155685
719.521	0.0154104
719.599	0.0153522
719.677	0.0153369
719.755	0.0153303
719.833	0.0154842
719.911	0.0155212
719.989	0.0156349
720.068	0.0156814
720.146	0.0157607
720.224	0.0159905
720.302	0.0160300
720.380	0.0160738
720.458	0.0160549
720.536	0.0161771
720.614	0.0161986
720.693	0.0160560
720.771	0.0160545
720.849	0.0159560
720.927	0.0160418
721.005	0.0159788
721.083	0.0158129
721.161	0.0158241
721.239	0.0156107
721.318	0.0154465
721.396	0.0153852
721.474	0.0153931
721.552	0.0152666
721.630	0.0152177
721.708	0.0150438
721.786	0.0151553
721.864	0.0151180
721.943	0.0150179
722.021	0.0150765
722.099	0.0152016
722.177	0.0152049
722.255	0.0152206
722.333	0.0152512
722.411	0.0153490
722.489	0.0155917
722.568	0.0154786
722.646	0.0156805
722.724	0.0156311
722.802	0.0157340
722.880	0.0158226
722.958	0.0158496
723.036	0.0157248
723.114	0.0159225
723.193	0.0156714
723.271	0.0157227
723.349	0.0156744
723.427	0.0156802
723.505	0.0154764
723.583	0.0156628
723.661	0.0154176
723.739	0.0152335
723.818	0.0153230
723.896	0.0152948
723.974	0.0150522
724.052	0.0151189
724.130	0.0151033
724.208	0.0152065
724.286	0.0151065
724.364	0.0153419
724.443	0.0153024
724.521	0.0153616
724.599	0.0154385
724.677	0.0154086
724.755	0.0155143
724.833	0.0155205
724.911	0.0156203
724.989	0.0159492
725.068	0.0158400
725.146	0.0159004
725.224	0.0160257
725.302	0.0160487
725.380	0.0161348
725.458	0.0162257
725.536	0.0161139
725.614	0.0160966
725.693	0.0161037
725.771	0.0159587
725.849	0.0158813
725.927	0.0158340
726.005	0.0156603
726.083	0.0154638
726.161	0.0154904
726.239	0.0153255
726.318	0.0153250
726.396	0.0153716
726.474	0.0153476
726.552	0.0153202
726.630	0.0152900
726.708	0.0153059
726.786	0.0154815
726.864	0.0154781
726.943	0.0155190
727.021	0.0156130
727.099	0.0156868
727.177	0.0158004
727.255	0.0158752
727.333	0.0158146
727.411	0.0159747
727.489	0.0159802
727.568	0.0159108
727.646	0.0158738
727.724	0.0159244
727.802	0.0158509
727.880	0.0157499
727.958	0.0156415
728.036	0.0154508
728.114	0.0155396
728.193	0.0153116
728.271	0.0152282
728.349	0.0153561
728.427	0.0153321
728.505	0.0152869
728.583	0.0151848
728.661	0.0152992
728.739	0.0152960
728.818	0.0152683
728.896	0.0153521
728.974	0.0155626
729.052	0.0154324
729.130	0.0154562
729.208	0.0155588
729.286	0.0156948
729.364	0.0157949
729.443	0.0156968
729.521	0.0157959
729.599	0.0156609
729.677	0.0156570
729.755	0.0157738
729.833	0.0156709
729.911	0.0156539
729.989	0.0157242
730.068	0.0154569
730.146	0.0153606
730.224	0.0152521
730.302	0.0153550
730.380	0.0154511
730.458	0.0155323
730.536	0.0153419
730.614	0.0153947
730.693	0.0155077
730.771	0.0156126
730.849	0.0156205
730.927	0.0156535
731.005	0.0156795
731.083	0.0157359
731.161	0.0157407
731.239	0.0155241
731.318	0.0156013
731.396	0.0157377
731.474	0.0156822
731.552	0.0156403
731.630	0.0157558
731.708	0.0157193
731.786	0.0157729
731.864	0.0157378
731.943	0.0157029
732.021	0.0157230
732.099	0.0155441
732.177	0.0157134
732.255	0.0155859
732.333	0.0156315
732.411	0.0156624
732.489	0.0156584
732.568	0.0157664
732.646	0.0157156
732.724	0.0157357
732.802	0.0155914
732.880	0.0158606
732.958	0.0157890
733.036	0.0157314
733.114	0.0158942
733.193	0.0156154
733.271	0.0156592
733.349	0.0157188
733.427	0.0156556
733.505	0.0157227
733.583	0.0156225
733.661	0.0154409
733.739	0.0154559
733.818	0.0154771
733.896	0.0154594
733.974	0.0155682
734.052	0.0156075
734.130	0.0155095
734.208	0.0156864
734.286	0.0156126
734.364	0.0156986
734.443	0.0155271
734.521	0.0156630
734.599	0.0156522
734.677	0.0155640
734.755	0.0155902
734.833	0.0155827
734.911	0.0156239
734.989	0.0156106
735.068	0.0154324
735.146	0.0153673
735.224	0.0154499
735.302	0.0153999
735.380	0.0153330
735.458	0.0154244
735.536	0.0154874
735.614	0.0153584
735.693	0.0155119
735.771	0.0155664
735.849	0.0155714
735.927	0.0156575
736.005	0.0156547
736.083	0.0154933
736.161	0.0155894
736.239	0.0157843
736.318	0.0157758
736.396	0.0157222
736.474	0.0157117
736.552	0.0158893
736.630	0.0158537
736.708	0.0158048
736.786	0.0156686
736.864	0.0159073
736.943	0.0157886
737.021	0.0156439
737.099	0.0157002
737.177	0.0155582
737.255	0.0156017
737.333	0.0155286
737.411	0.0154789
737.489	0.0156065
737.568	0.0156223
737.646	0.0154903
737.724	0.0153775
737.802	0.0155840
737.880	0.0156275
737.958	0.0155576
738.036	0.0155650
738.114	0.0155199
738.193	0.0156443
738.271	0.0156707
738.349	0.0154789
738.427	0.0156666
738.505	0.0156594
738.583	0.0157153
738.661	0.0157602
738.739	0.0155592
738.818	0.0155370
738.896	0.0156962
738.974	0.0155463
739.052	0.0157201
739.130	0.0156750
739.208	0.0157332
739.286	0.0155888
739.364	0.0155663
739.443	0.0155740
739.521	0.0156435
739.599	0.0156950
739.677	0.0155922
739.755	0.0157602
739.833	0.0155882
739.911	0.0155582
739.989	0.0155306
740.068	0.0156320
740.146	0.0156458
740.224	0.0156057
740.302	0.0155956
740.380	0.0155740
740.458	0.0155533
740.536	0.0156268
740.614	0.0157111
740.693	0.0156004
740.771	0.0155832
740.849	0.0156621
740.927	0.0156676
741.005	0.0156968
741.083	0.0156669
741.161	0.0156982
741.239	0.0155536
741.318	0.0156831
741.396	0.0156949
741.474	0.0155730
741.552	0.0157042
741.630	0.0157352
741.708	0.0157651
741.786	0.0158377
741.864	0.0157731
741.943	0.0157844
742.021	0.0158020
742.099	0.0158147
742.177	0.0156296
742.255	0.0157834
742.333	0.0159370
742.411	0.0157263
742.489	0.0158460
742.568	0.0156797
742.646	0.0157280
742.724	0.0155527
742.802	0.0155947
742.880	0.0156947
742.958	0.0156960
743.036	0.0158228
743.114	0.0156670
743.193	0.0155435
743.271	0.0155605
743.349	0.0156157
743.427	0.0157481
743.505	0.0156456
743.583	0.0155053
743.661	0.0154967
743.739	0.0156491
743.818	0.0154144
743.896	0.0156161
743.974	0.0154386
744.052	0.0154455
744.130	0.0156582
744.208	0.0156263
744.286	0.0157257
744.364	0.0155320
744.443	0.0156377
744.521	0.0156897
744.599	0.0156967
744.677	0.0157261
744.755	0.0157603
744.833	0.0157008
744.911	0.0157555
744.989	0.0157078
745.068	0.0156271
745.146	0.0157310
745.224	0.0156783
745.302	0.0156148
745.380	0.0155011
745.458	0.0155010
745.536	0.0154712
745.614	0.0154602
745.693	0.0155103
745.771	0.0154816
745.849	0.0152603
745.927	0.0155127
746.005	0.0154145
746.083	0.0154440
746.161	0.0155180
746.239	0.0154041
746.318	0.0154211
746.396	0.0156338
746.474	0.0155663
746.552	0.0156906
746.630	0.0158231
746.708	0.0156293
746.786	0.0158569
746.864	0.0158210
746.943	0.0158505
747.021	0.0159177
747.099	0.0157399
747.177	0.0157196
747.255	0.0156844
747.333	0.0156496
747.411	0.0156250
747.489	0.0153929
747.568	0.0154691
747.646	0.0155527
747.724	0.0154037
747.802	0.0153159
747.880	0.0153687
747.958	0.0153734
748.036	0.0153580
748.114	0.0153179
748.193	0.0154341
748.271	0.0154975
748.349	0.0153878
748.427	0.0154991
748.505	0.0157769
748.583	0.0157327
748.661	0.0157164
748.739	0.0158425
748.818	0.0157655
748.896	0.0156556
748.974	0.0158147
749.052	0.0159389
749.130	0.0158559
749.208	0.0157912
749.286	0.0158228
749.364	0.0157320
749.443	0.0156630
749.521	0.0155981
749.599	0.0155699
749.677	0.0154522
749.755	0.0155867
749.833	0.0154736
749.911	0.0155766
749.989	0.0155676
750.068	0.0155108
750.146	0.0154826
750.224	0.0154700
750.302	0.0155419
750.380	0.0155856
750.458	0.0155456
750.536	0.0155804
750.614	0.0157191
750.693	0.0156656
750.771	0.0157181
750.849	0.0155222
750.927	0.0157151
751.005	0.0157758
751.083	0.0158381
751.161	0.0155765
751.239	0.0156269
751.318	0.0155797
751.396	0.0156865
751.474	0.0155836
751.552	0.0156025
751.630	0.0154844
751.708	0.0156521
751.786	0.0154544
751.864	0.0154576
751.943	0.0155202
752.021	0.0156542
752.099	0.0156157
752.177	0.0156194
752.255	0.0157197
752.333	0.0156532
752.411	0.0157313
752.489	0.0157005
752.568	0.0156606
752.646	0.0158704
752.724	0.0157140
752.802	0.0156918
752.880	0.0157699
752.958	0.0156834
753.036	0.0157281
753.114	0.0156319
753.193	0.0155385
753.271	0.0156043
753.349	0.0153221
753.427	0.0154559
753.505	0.0154416
753.583	0.0154197
753.661	0.0154275
753.739	0.0154429
753.818	0.0153960
753.896	0.0153886
753.974	0.0154897
754.052	0.0154761
754.130	0.0155013
754.208	0.0156041
754.286	0.0156097
754.364	0.0157102
754.443	0.0157337
754.521	0.0156914
754.599	0.0157790
754.677	0.0159129
754.755	0.0158822
754.833	0.0158540
754.911	0.0159911
754.989	0.0158552
755.068	0.0158151
755.146	0.0157359
755.224	0.0157826
755.302	0.0156582
755.380	0.0155915
755.458	0.0155121
755.536	0.0155790
755.614	0.0153596
755.693	0.0154585
755.771	0.0155634
755.849	0.0154740
755.927	0.0154907
756.005	0.0154384
756.083	0.0154856
756.161	0.0155375
756.239	0.0154897
756.318	0.0156001
756.396	0.0156700
756.474	0.0156409
756.552	0.0155707
756.630	0.0157014
756.708	0.0156050
756.786	0.0156306
756.864	0.0156472
756.943	0.0156796
757.021	0.0156530
757.099	0.0156984
757.177	0.0156280
757.255	0.0154597
757.333	0.0155621
757.411	0.0156360
757.489	0.0153922
757.568	0.0153715
757.646	0.0155891
757.724	0.0156024
757.802	0.0153943
757.880	0.0155003
757.958	0.0155513
758.036	0.0156227
758.114	0.0156696
758.193	0.0155151
758.271	0.0155715
758.349	0.0155328
758.427	0.0155951
758.505	0.0156276
758.583	0.0156443
758.661	0.0154586
758.739	0.0156487
758.818	0.0155776
758.896	0.0155194
758.974	0.0157250
759.052	0.0156395
759.130	0.0156814
759.208	0.0155463
759.286	0.0155051
759.364	0.0154592
759.443	0.0154721
759.521	0.0154991
759.599	0.0153861
759.677	0.0155418
759.755	0.0155504
759.833	0.0153273
759.911	0.0154654
759.989	0.0155820
760.068	0.0155815
760.146	0.0155350
760.224	0.0156047
760.302	0.0155805
760.380	0.0156898
760.458	0.0154729
760.536	0.0156094
760.614	0.0156976
760.693	0.0157547
760.771	0.0158229
760.849	0.0157014
760.927	0.0157778
761.005	0.0155622
761.083	0.0156032
761.161	0.0156274
761.239	0.0156179
761.318	0.0157254
761.396	0.0155602
761.474	0.0155182
761.552	0.0156522
761.630	0.0155946
761.708	0.0155952
761.786	0.0156570
761.864	0.0156094
761.943	0.0158001
762.021	0.0156002
762.099	0.0156847
762.177	0.0155377
762.255	0.0156573
762.333	0.0155968
762.411	0.0159327
762.489	0.0156348
762.568	0.0157358
762.646	0.0156707
762.724	0.0158199
762.802	0.0157549
762.880	0.0158822
762.958	0.0156316
763.036	0.0155605
763.114	0.0155529
763.193	0.0156039
763.271	0.0154400
763.349	0.0154473
763.427	0.0154131
763.505	0.0154264
763.583	0.0153594
763.661	0.0153783
763.739	0.0154359
763.818	0.0153470
763.896	0.0153414
763.974	0.0154897
764.052	0.0154002
764.130	0.0155341
764.208	0.0156072
764.286	0.0153403
764.364	0.0154878
764.443	0.0155067
764.521	0.0156043
764.599	0.0154636
764.677	0.0156538
764.755	0.0156660
764.833	0.0156018
764.911	0.0155048
764.989	0.0156020
765.068	0.0156557
765.146	0.0154821
765.224	0.0155492
765.302	0.0155441
765.380	0.0156316
765.458	0.0156724
765.536	0.0156303
765.614	0.0155405
765.693	0.0155819
765.771	0.0156313
765.849	0.0155854
765.927	0.0157578
766.005	0.0156489
766.083	0.0156997
766.161	0.0155695
766.239	0.0157258
766.318	0.0157671
766.396	0.0156559
766.474	0.0156726
766.552	0.0157697
766.630	0.0157460
766.708	0.0155600
766.786	0.0157124
766.864	0.0156990
766.943	0.0155456
767.021	0.0156379
767.099	0.0155936
767.177	0.0154547
767.255	0.0155148
767.333	0.0155723
767.411	0.0156528
767.489	0.0154085
767.568	0.0154756
767.646	0.0156881
767.724	0.0154869
767.802	0.0156364
767.880	0.0156802
767.958	0.0155844
768.036	0.0155470
768.114	0.0155712
768.193	0.0156134
768.271	0.0156396
768.349	0.0155737
768.427	0.0156873
768.505	0.0154693
768.583	0.0156393
768.661	0.0156639
768.739	0.0155830
768.818	0.0154099
768.896	0.0155454
768.974	0.0155168
769.052	0.0156364
769.130	0.0155399
769.208	0.0155065
769.286	0.0156419
769.364	0.0154572
769.443	0.0155592
769.521	0.0154168
769.599	0.0153918
769.677	0.0153213
769.755	0.0155124
769.833	0.0155421
769.911	0.0155219
769.989	0.0155080
770.068	0.0154527
770.146	0.0155550
770.224	0.0154508
770.302	0.0155813
770.380	0.0155113
770.458	0.0157117
770.536	0.0155086
770.614	0.0156446
770.693	0.0156307
770.771	0.0155811
770.849	0.0156842
770.927	0.0155794
771.005	0.0156602
771.083	0.0157355
771.161	0.0156895
771.239	0.0156135
771.318	0.0156866
771.396	0.0157258
771.474	0.0156966
771.552	0.0155527
771.630	0.0156410
771.708	0.0156106
771.786	0.0156046
771.864	0.0154904
771.943	0.0155388
772.021	0.0156826
772.099	0.0157008
772.177	0.0156331
772.255	0.0157317
772.333	0.0156001
772.411	0.0157384
772.489	0.0156104
772.568	0.0157233
772.646	0.0157187
772.724	0.0157532
772.802	0.0157260
772.880	0.0156223
772.958	0.0157120
773.036	0.0157458
773.114	0.0155878
773.193	0.0157541
773.271	0.0157230
773.349	0.0157726
773.427	0.0157276
773.505	0.0156686
773.583	0.0156911
773.661	0.0156602
773.739	0.0156571
773.818	0.0155992
773.896	0.0157191
773.974	0.0157631
774.052	0.0156522
774.130	0.0156621
774.208	0.0157851
774.286	0.0156980
774.364	0.0156451
774.443	0.0156984
774.521	0.0155901
774.599	0.0156021
774.677	0.0156822
774.755	0.0156880
774.833	0.0155412
774.911	0.0156116
774.989	0.0154939
775.068	0.0154649
775.146	0.0154845
775.224	0.0156806
775.302	0.0156237
775.380	0.0155962
775.458	0.0156112
775.536	0.0156317
775.614	0.0155862
775.693	0.0154724
775.771	0.0155546
775.849	0.0154932
775.927	0.0154372
776.005	0.0155982
776.083	0.0154391
776.161	0.0155894
776.239	0.0154604
776.318	0.0155412
776.396	0.0156659
776.474	0.0156568
776.552	0.0156003
776.630	0.0155913
776.708	0.0157340
776.786	0.0156546
776.864	0.0155857
776.943	0.0156817
777.021	0.0155750
777.099	0.0156449
777.177	0.0155389
777.255	0.0157235
777.333	0.0155589
777.411	0.0156929
777.489	0.0157146
777.568	0.0155914
777.646	0.0156499
777.724	0.0155592
777.802	0.0156165
777.880	0.0156233
777.958	0.0156074
778.036	0.0155773
778.114	0.0157127
778.193	0.0157197
778.271	0.0157755
778.349	0.0156262
778.427	0.0156806
778.505	0.0157066
778.583	0.0157953
778.661	0.0156548
778.739	0.0157587
778.818	0.0157663
778.896	0.0157423
778.974	0.0158401
779.052	0.0157690
779.130	0.0156865
779.208	0.0155329
779.286	0.0155729
779.364	0.0155660
779.443	0.0155731
779.521	0.0155075
779.599	0.0154841
779.677	0.0153268
779.755	0.0155881
779.833	0.0154649
779.911	0.0155425
779.989	0.0154044
780.068	0.0155085
780.146	0.0156093
780.224	0.0155186
780.302	0.0155938
780.380	0.0154703
780.458	0.0156351
780.536	0.0154926
780.614	0.0156633
780.693	0.0157785
780.771	0.0156821
780.849	0.0157191
780.927	0.0157222
781.005	0.0155443
781.083	0.0156639
781.161	0.0156043
781.239	0.0156310
781.318	0.0154927
781.396	0.0154916
781.474	0.0155144
781.552	0.0156013
781.630	0.0155448
781.708	0.0154671
781.786	0.0155936
781.864	0.0155025
781.943	0.0154913
782.021	0.0155630
782.099	0.0156136
782.177	0.0155859
782.255	0.0156715
782.333	0.0155984
782.411	0.0156423
782.489	0.0156223
782.568	0.0155608
782.646	0.0156632
782.724	0.0157001
782.802	0.0157528
782.880	0.0155962
782.958	0.0156548
783.036	0.0156935
783.114	0.0155924
783.193	0.0155372
783.271	0.0156580
783.349	0.0156095
783.427	0.0155048
783.505	0.0155817
783.583	0.0157484
783.661	0.0155480
783.739	0.0156178
783.818	0.0155323
783.896	0.0155756
783.974	0.0156327
784.052	0.0154900
784.130	0.0156204
784.208	0.0156315
784.286	0.0156493
784.364	0.0158614
784.443	0.0155606
784.521	0.0155832
784.599	0.0156583
784.677	0.0156116
784.755	0.0157632
784.833	0.0157413
784.911	0.0156931
784.989	0.0156151
785.068	0.0156803
785.146	0.0156246
785.224	0.0155946
785.302	0.0156435
785.380	0.0155411
785.458	0.0155309
785.536	0.0154817
785.614	0.0155135
785.693	0.0154716
785.771	0.0154678
785.849	0.0155495
785.927	0.0155533
786.005	0.0154230
786.083	0.0154400
786.161	0.0156432
786.239	0.0155965
786.318	0.0154849
786.396	0.0157220
786.474	0.0157612
786.552	0.0155734
786.630	0.0156117
786.708	0.0155652
786.786	0.0155299
786.864	0.0156715
786.943	0.0156428
787.021	0.0158276
787.099	0.0157488
787.177	0.0156317
787.255	0.0156189
787.333	0.0156268
787.411	0.0156102
787.489	0.0156626
787.568	0.0155360
787.646	0.0156726
787.724	0.0156347
787.802	0.0156540
787.880	0.0155956
787.958	0.0156583
788.036	0.0156564
788.114	0.0155064
788.193	0.0153513
788.271	0.0154342
788.349	0.0155598
788.427	0.0155293
788.505	0.0154210
788.583	0.0154028
788.661	0.0154575
788.739	0.0153562
788.818	0.0153682
788.896	0.0154494
788.974	0.0155260
789.052	0.0156010
789.130	0.0155387
789.208	0.0154913
789.286	0.0156976
789.364	0.0155713
789.443	0.0155491
789.521	0.0158427
789.599	0.0157136
789.677	0.0156232
789.755	0.0155612
789.833	0.0155559
789.911	0.0155676
789.989	0.0157220
790.068	0.0155997
790.146	0.0156240
790.224	0.0155054
790.302	0.0156287
790.380	0.0155880
790.458	0.0155272
790.536	0.0153214
790.614	0.0155576
790.693	0.0154580
790.771	0.0154713
790.849	0.0154707
790.927	0.0154176
791.005	0.0156465
791.083	0.0155549
791.161	0.0156431
791.239	0.0155760
791.318	0.0154667
791.396	0.0154969
791.474	0.0155127
791.552	0.0154949
791.630	0.0155271
791.708	0.0155481
791.786	0.0156342
791.864	0.0156341
791.943	0.0154781
792.021	0.0155057
792.099	0.0155779
792.177	0.0156522
792.255	0.0156243
792.333	0.0154915
792.411	0.0155087
792.489	0.0155006
792.568	0.0157252
792.646	0.0158615
792.724	0.0156712
792.802	0.0156636
792.880	0.0156673
792.958	0.0156804
793.036	0.0157112
793.114	0.0156271
793.193	0.0156268
793.271	0.0156316
793.349	0.0155878
793.427	0.0155734
793.505	0.0156242
793.583	0.0155415
793.661	0.0154638
793.739	0.0155891
793.818	0.0155645
793.896	0.0154105
793.974	0.0154323
794.052	0.0153918
794.130	0.0155115
794.208	0.0154597
794.286	0.0154318
794.364	0.0154351
794.443	0.0155341
794.521	0.0154305
794.599	0.0153881
794.677	0.0154990
794.755	0.0155376
794.833	0.0155835
794.911	0.0155004
794.989	0.0155579
795.068	0.0156513
795.146	0.0156157
795.224	0.0155377
795.302	0.0155199
795.380	0.0155099
795.458	0.0154762
795.536	0.0153857
795.614	0.0155258
795.693	0.0156305
795.771	0.0155197
795.849	0.0156439
795.927	0.0155963
796.005	0.0155821
796.083	0.0155920
796.161	0.0154650
796.239	0.0157011
796.318	0.0156445
796.396	0.0156128
796.474	0.0154250
796.552	0.0156002
796.630	0.0154806
796.708	0.0154727
796.786	0.0155138
796.864	0.0155307
796.943	0.0155971
797.021	0.0156113
797.099	0.0156731
797.177	0.0156554
797.255	0.0156880
797.333	0.0156385
797.411	0.0155731
797.489	0.0155463
797.568	0.0154881
797.646	0.0156710
797.724	0.0156015
797.802	0.0156156
797.880	0.0156203
797.958	0.0155232
798.036	0.0156627
798.114	0.0155657
798.193	0.0155039
798.271	0.0156120
798.349	0.0155283
798.427	0.0156065
798.505	0.0157619
798.583	0.0155064
798.661	0.0155448
798.739	0.0156182
798.818	0.0156477
798.896	0.0155492
798.974	0.0155991
799.052	0.0154915
799.130	0.0155724
799.208	0.0154555
799.286	0.0156394
799.364	0.0156099
799.443	0.0155482
799.521	0.0155912
799.599	0.0156848
799.677	0.0156845
799.755	0.0156387
799.833	0.0157536
799.911	0.0158032
799.989	0.0157412
800.068	0.0155835
800.146	0.0157686
800.224	0.0157835
800.302	0.0156657
800.380	0.0154847
800.458	0.0156733
800.536	0.0156315
800.614	0.0156032
800.693	0.0156219
800.771	0.0156018
800.849	0.0155273
800.927	0.0156585
801.005	0.0156451
801.083	0.0154197
801.161	0.0154781
801.239	0.0154985
801.318	0.0155482
801.396	0.0156562
801.474	0.0155862
801.552	0.0155509
801.630	0.0154836
801.708	0.0154900
801.786	0.0155772
801.864	0.0157118
801.943	0.0156214
802.021	0.0156550
802.099	0.0156620
802.177	0.0155694
802.255	0.0155312
802.333	0.0155991
802.411	0.0157609
802.489	0.0157143
802.568	0.0155587
802.646	0.0155493
802.724	0.0158063
802.802	0.0156218
802.880	0.0155602
802.958	0.0156265
803.036	0.0156775
803.114	0.0156985
803.193	0.0155800
803.271	0.0155107
803.349	0.0154395
803.427	0.0155616
803.505	0.0155386
803.583	0.0154903
803.661	0.0155033
803.739	0.0155141
803.818	0.0155293
803.896	0.0155980
803.974	0.0154360
804.052	0.0156219
804.130	0.0155654
804.208	0.0155352
804.286	0.0155170
804.364	0.0154749
804.443	0.0156303
804.521	0.0156922
804.599	0.0155974
804.677	0.0155690
804.755	0.0157383
804.833	0.0157083
804.911	0.0156357
804.989	0.0157860
805.068	0.0156587
805.146	0.0156442
805.224	0.0156031
805.302	0.0157339
805.380	0.0157308
805.458	0.0156560
805.536	0.0155447
805.614	0.0156265
805.693	0.0157117
805.771	0.0156704
805.849	0.0156165
805.927	0.0155111
806.005	0.0155537
806.083	0.0154575
806.161	0.0156319
806.239	0.0155439
806.318	0.0155399
806.396	0.0156393
806.474	0.0156089
806.552	0.0156207
806.630	0.0156310
806.708	0.0157302
806.786	0.0154536
806.864	0.0155215
806.943	0.0154608
807.021	0.0154556
807.099	0.0154958
807.177	0.0155957
807.255	0.0155451
807.333	0.0156207
807.411	0.0154886
807.489	0.0154134
807.568	0.0155003
807.646	0.0155311
807.724	0.0155222
807.802	0.0155214
807.880	0.0153469
807.958	0.0156126
808.036	0.0155389
808.114	0.0155209
808.193	0.0156271
808.271	0.0155914
808.349	0.0155901
808.427	0.0155650
808.505	0.0156987
808.583	0.0157529
808.661	0.0156743
808.739	0.0158205
808.818	0.0156670
808.896	0.0154449
808.974	0.0158107
809.052	0.0157674
809.130	0.0157079
809.208	0.0157005
809.286	0.0156846
809.364	0.0156557
809.443	0.0156566
809.521	0.0156779
809.599	0.0155211
809.677	0.0157007
809.755	0.0157242
809.833	0.0156413
809.911	0.0156501
809.989	0.0157458
810.068	0.0156564
810.146	0.0156138
810.224	0.0156551
810.302	0.0156223
810.380	0.0157372
810.458	0.0156760
810.536	0.0157146
810.614	0.0157154
810.693	0.0156675
810.771	0.0156919
810.849	0.0157534
810.927	0.0157890
811.005	0.0157632
811.083	0.0157241
811.161	0.0156714
811.239	0.0157007
811.318	0.0156196
811.396	0.0155968
811.474	0.0155937
811.552	0.0156195
811.630	0.0155296
811.708	0.0156854
811.786	0.0154214
811.864	0.0155373
811.943	0.0154707
812.021	0.0155512
812.099	0.0155180
812.177	0.0154112
812.255	0.0155297
812.333	0.0155356
812.411	0.0155346
812.489	0.0155789
812.568	0.0155027
812.646	0.0154974
812.724	0.0156420
812.802	0.0156256
812.880	0.0156585
812.958	0.0156763
813.036	0.0155096
813.114	0.0156796
813.193	0.0156695
813.271	0.0157814
813.349	0.0158066
813.427	0.0155983
813.505	0.0156277
813.583	0.0157291
813.661	0.0156739
813.739	0.0155367
813.818	0.0155644
813.896	0.0154794
813.974	0.0155747
814.052	0.0156265
814.130	0.0155624
814.208	0.0155034
814.286	0.0153913
814.364	0.0154092
814.443	0.0155688
814.521	0.0155119
814.599	0.0155323
814.677	0.0155497
814.755	0.0155965
814.833	0.0154537
814.911	0.0155666
814.989	0.0155479
815.068	0.0157346
815.146	0.0154881
815.224	0.0155708
815.302	0.0157169
815.380	0.0156593
815.458	0.0155939
815.536	0.0155655
815.614	0.0156210
815.693	0.0157516
815.771	0.0156198
815.849	0.0155830
815.927	0.0156295
816.005	0.0154247
816.083	0.0156535
816.161	0.0157163
816.239	0.0157007
816.318	0.0158090
816.396	0.0157286
816.474	0.0157169
816.552	0.0156284
816.630	0.0154785
816.708	0.0156602
816.786	0.0156900
816.864	0.0155882
816.943	0.0156408
817.021	0.0157881
817.099	0.0156866
817.177	0.0156500
817.255	0.0157755
817.333	0.0157199
817.411	0.0156427
817.489	0.0158391
817.568	0.0157367
817.646	0.0157098
817.724	0.0156646
817.802	0.0155360
817.880	0.0156637
817.958	0.0156973
818.036	0.0156464
818.114	0.0154314
818.193	0.0154614
818.271	0.0155660
818.349	0.0154827
818.427	0.0155912
818.505	0.0156355
818.583	0.0154568
818.661	0.0154996
818.739	0.0154034
818.818	0.0155173
818.896	0.0156438
818.974	0.0154459
819.052	0.0155707
819.130	0.0154852
819.208	0.0154479
819.286	0.0156570
819.364	0.0155070
819.443	0.0155029
819.521	0.0154672
819.599	0.0154727
819.677	0.0155500
819.755	0.0155371
819.833	0.0155109
819.911	0.0155515
819.989	0.0156684
820.068	0.0154456
820.146	0.0153936
820.224	0.0154967
820.302	0.0155996
820.380	0.0154311
820.458	0.0155144
820.536	0.0155022
820.614	0.0153764
820.693	0.0155214
820.771	0.0155551
820.849	0.0156865
820.927	0.0155613
821.005	0.0156902
821.083	0.0156514
821.161	0.0156657
821.239	0.0157433
821.318	0.0157642
821.396	0.0156717
821.474	0.0156163
821.552	0.0157114
821.630	0.0158511
821.708	0.0156507
821.786	0.0157417
821.864	0.0156570
821.943	0.0156228
822.021	0.0156479
822.099	0.0156037
822.177	0.0155982
822.255	0.0156146
822.333	0.0157164
822.411	0.0156656
822.489	0.0155525
822.568	0.0155364
822.646	0.0157253
822.724	0.0156734
822.802	0.0155591
822.880	0.0155482
822.958	0.0156866
823.036	0.0156508
823.114	0.0155415
823.193	0.0155833
823.271	0.0156481
823.349	0.0156221
823.427	0.0157835
823.505	0.0156494
823.583	0.0156634
823.661	0.0155187
823.739	0.0156416
823.818	0.0156689
823.896	0.0157033
823.974	0.0156657
824.052	0.0156063
824.130	0.0154816
824.208	0.0155701
824.286	0.0155455
824.364	0.0155695
824.443	0.0154525
824.521	0.0154091
824.599	0.0153273
824.677	0.0155522
824.755	0.0155029
824.833	0.0153173
824.911	0.0154100
824.989	0.0153941
825.068	0.0153585
825.146	0.0154504
825.224	0.0153924
825.302	0.0154713
825.380	0.0152568
825.458	0.0152530
825.536	0.0153097
825.614	0.0154545
825.693	0.0153596
825.771	0.0153605
825.849	0.0155230
825.927	0.0154700
826.005	0.0155286
826.083	0.0153425
826.161	0.0155114
826.239	0.0155611
826.318	0.0155522
826.396	0.0155187
826.474	0.0155983
826.552	0.0157156
826.630	0.0154313
826.708	0.0155392
826.786	0.0156640
826.864	0.0156313
826.943	0.0156001
827.021	0.0156376
827.099	0.0157335
827.177	0.0158403
827.255	0.0157487
827.333	0.0156227
827.411	0.0157355
827.489	0.0157647
827.568	0.0157648
827.646	0.0157639
827.724	0.0158951
827.802	0.0158067
827.880	0.0156767
827.958	0.0158763
828.036	0.0158131
828.114	0.0156351
828.193	0.0157603
828.271	0.0157702
828.349	0.0156998
828.427	0.0155624
828.505	0.0156636
828.583	0.0155798
828.661	0.0156722
828.739	0.0156277
828.818	0.0156339
828.896	0.0154623
828.974	0.0155148
829.052	0.0156043
829.130	0.0156754
829.208	0.0154889
829.286	0.0156163
829.364	0.0155618
829.443	0.0154592
829.521	0.0156396
829.599	0.0155333
829.677	0.0153417
829.755	0.0156078
829.833	0.0155108
829.911	0.0154766
829.989	0.0155564
830.068	0.0154482
830.146	0.0154629
830.224	0.0154357
830.302	0.0155388
830.380	0.0153149
830.458	0.0153911
830.536	0.0153851
830.614	0.0154088
830.693	0.0153584
830.771	0.0154601
830.849	0.0155154
830.927	0.0152995
831.005	0.0153101
831.083	0.0154681
831.161	0.0154897
831.239	0.0155743
831.318	0.0155410
831.396	0.0154591
831.474	0.0155451
831.552	0.0155787
831.630	0.0156669
831.708	0.0155238
831.786	0.0155321
831.864	0.0156216
831.943	0.0155679
832.021	0.0155282
832.099	0.0156044
832.177	0.0155936
832.255	0.0156776
832.333	0.0158657
832.411	0.0157008
832.489	0.0157185
832.568	0.0157190
832.646	0.0157425
832.724	0.0157521
832.802	0.0157413
832.880	0.0155540
832.958	0.0156119
833.036	0.0156639
833.114	0.0158681
833.193	0.0157807
833.271	0.0156980
833.349	0.0156610
833.427	0.0157869
833.505	0.0157075
833.583	0.0157025
833.661	0.0157491
833.739	0.0156799
833.818	0.0156821
833.896	0.0156770
833.974	0.0156322
834.052	0.0156577
834.130	0.0157154
834.208	0.0155908
834.286	0.0156370
834.364	0.0155659
834.443	0.0155899
834.521	0.0155121
834.599	0.0155558
834.677	0.0154980
834.755	0.0154206
834.833	0.0156366
834.911	0.0154640
834.989	0.0154800
835.068	0.0154997
835.146	0.0155436
835.224	0.0155333
835.302	0.0155516
835.380	0.0155594
835.458	0.0155948
835.536	0.0155398
835.614	0.0156291
835.693	0.0154843
835.771	0.0155719
835.849	0.0154925
835.927	0.0154388
836.005	0.0156264
836.083	0.0155038
836.161	0.0155293
836.239	0.0155523
836.318	0.0155453
836.396	0.0155820
836.474	0.0154542
836.552	0.0156262
836.630	0.0155590
836.708	0.0155064
836.786	0.0155795
836.864	0.0156077
836.943	0.0156337
837.021	0.0156342
837.099	0.0157228
837.177	0.0155225
837.255	0.0157182
837.333	0.0156113
837.411	0.0158102
837.489	0.0157846
837.568	0.0156973
837.646	0.0156087
837.724	0.0156752
837.802	0.0157330
837.880	0.0155948
837.958	0.0156664
838.036	0.0157262
838.114	0.0157381
838.193	0.0156757
838.271	0.0156624
838.349	0.0157320
838.427	0.0156631
838.505	0.0158731
838.583	0.0156980
838.661	0.0157262
838.739	0.0157388
838.818	0.0156824
838.896	0.0156274
838.974	0.0157447
839.052	0.0157054
839.130	0.0156012
839.208	0.0156883
839.286	0.0155589
839.364	0.0156709
839.443	0.0157552
839.521	0.0155744
839.599	0.0157658
839.677	0.0156908
839.755	0.0156825
839.833	0.0157507
839.911	0.0157330
839.989	0.0156939
840.068	0.0156850
840.146	0.0157038
840.224	0.0157498
840.302	0.0156512
840.380	0.0156970
840.458	0.0156298
840.536	0.0156396
840.614	0.0156581
840.693	0.0157311
840.771	0.0157056
840.849	0.0156441
840.927	0.0157037
841.005	0.0156086
841.083	0.0156591
841.161	0.0156537
841.239	0.0155940
841.318	0.0156124
841.396	0.0155856
841.474	0.0155555
841.552	0.0157814
841.630	0.0158044
841.708	0.0156120
841.786	0.0157127
841.864	0.0156951
841.943	0.0155218
842.021	0.0156384
842.099	0.0156299
842.177	0.0155295
842.255	0.0156336
842.333	0.0155932
842.411	0.0156214
842.489	0.0156352
842.568	0.0156494
842.646	0.0155798
842.724	0.0155718
842.802	0.0155312
842.880	0.0155829
842.958	0.0155988
843.036	0.0155796
843.114	0.0155371
843.193	0.0156084
843.271	0.0154858
843.349	0.0156264
843.427	0.0156055
843.505	0.0155560
843.583	0.0156010
843.661	0.0155531
843.739	0.0156886
843.818	0.0157458
843.896	0.0156934
843.974	0.0156213
844.052	0.0157806
844.130	0.0156125
844.208	0.0156472
844.286	0.0156406
844.364	0.0156235
844.443	0.0155729
844.521	0.0156731
844.599	0.0156203
844.677	0.0156840
844.755	0.0155801
844.833	0.0156679
844.911	0.0156325
844.989	0.0157854
845.068	0.0157500
845.146	0.0156300
845.224	0.0156441
845.302	0.0156867
845.380	0.0156178
845.458	0.0157329
845.536	0.0158112
845.614	0.0155972
845.693	0.0157208
845.771	0.0157967
845.849	0.0156689
845.927	0.0157057
846.005	0.0156593
846.083	0.0157845
846.161	0.0157815
846.239	0.0157269
846.318	0.0157492
846.396	0.0156296
846.474	0.0156964
846.552	0.0156272
846.630	0.0156822
846.708	0.0157232
846.786	0.0156809
846.864	0.0156006
846.943	0.0155821
847.021	0.0157841
847.099	0.0157311
847.177	0.0155431
847.255	0.0157179
847.333	0.0157678
847.411	0.0157140
847.489	0.0155602
847.568	0.0155772
847.646	0.0156259
847.724	0.0156388
847.802	0.0157273
847.880	0.0155646
847.958	0.0155958
848.036	0.0155093
848.114	0.0155463
848.193	0.0155902
848.271	0.0155516
848.349	0.0156551
848.427	0.0155342
848.505	0.0156251
848.583	0.0157471
848.661	0.0156796
848.739	0.0155052
848.818	0.0156568
848.896	0.0157523
848.974	0.0156294
849.052	0.0156565
849.130	0.0155219
849.208	0.0154870
849.286	0.0155100
849.364	0.0155836
849.443	0.0156271
849.521	0.0154553
849.599	0.0155497
849.677	0.0156190
849.755	0.0153622
849.833	0.0155623
849.911	0.0156580
849.989	0.0156089
850.068	0.0154961
850.146	0.0155555
850.224	0.0154916
850.302	0.0154733
850.380	0.0155058
850.458	0.0155589
850.536	0.0154648
850.614	0.0155583
850.693	0.0156071
850.771	0.0154638
850.849	0.0155222
850.927	0.0154983
851.005	0.0156442
851.083	0.0155093
851.161	0.0154958
851.239	0.0155807
851.318	0.0155901
851.396	0.0156281
851.474	0.0155367
851.552	0.0155530
851.630	0.0155926
851.708	0.0156495
851.786	0.0155833
851.864	0.0154488
851.943	0.0155739
852.021	0.0157198
852.099	0.0157085
852.177	0.0156401
852.255	0.0156783
852.333	0.0156384
852.411	0.0156420
852.489	0.0158080
852.568	0.0157170
852.646	0.0156808
852.724	0.0157527
852.802	0.0158004
852.880	0.0157254
852.958	0.0158288
853.036	0.0157574
853.114	0.0158824
853.193	0.0157458
853.271	0.0158067
853.349	0.0158147
853.427	0.0156903
853.505	0.0157100
853.583	0.0158015
853.661	0.0158523
853.739	0.0157583
853.818	0.0156729
853.896	0.0156988
853.974	0.0157192
854.052	0.0158962
854.130	0.0157420
854.208	0.0158216
854.286	0.0157989
854.364	0.0156408
854.443	0.0158053
854.521	0.0158510
854.599	0.0156824
854.677	0.0156228
854.755	0.0157117
854.833	0.0155405
854.911	0.0157240
854.989	0.0156387
855.068	0.0155461
855.146	0.0156133
855.224	0.0156145
855.302	0.0155464
855.380	0.0155124
855.458	0.0155715
855.536	0.0156223
855.614	0.0155477
855.693	0.0156154
855.771	0.0155268
855.849	0.0156541
855.927	0.0155494
856.005	0.0154056
856.083	0.0155367
856.161	0.0154987
856.239	0.0155045
856.318	0.0155124
856.396	0.0156679
856.474	0.0156132
856.552	0.0155115
856.630	0.0155835
856.708	0.0154318
856.786	0.0155909
856.864	0.0154587
856.943	0.0155342
857.021	0.0154626
857.099	0.0155426
857.177	0.0155531
857.255	0.0156638
857.333	0.0155516
857.411	0.0155654
857.489	0.0153912
857.568	0.0154919
857.646	0.0155102
857.724	0.0154095
857.802	0.0156038
857.880	0.0155563
857.958	0.0155928
858.036	0.0157354
858.114	0.0156431
858.193	0.0155249
858.271	0.0155837
858.349	0.0156879
858.427	0.0156178
858.505	0.0157344
858.583	0.0157642
858.661	0.0157655
858.739	0.0158742
858.818	0.0157455
858.896	0.0157920
858.974	0.0158585
859.052	0.0158183
859.130	0.0157615
859.208	0.0157333
859.286	0.0159166
859.364	0.0157097
859.443	0.0158025
859.521	0.0156776
859.599	0.0157957
859.677	0.0156319
859.755	0.0157240
859.833	0.0155761
859.911	0.0155886
859.989	0.0156802
860.068	0.0158066
860.146	0.0157050
860.224	0.0155682
860.302	0.0156581
860.380	0.0156078
860.458	0.0156983
860.536	0.0157571
860.614	0.0157824
860.693	0.0157407
860.771	0.0157249
860.849	0.0157271
860.927	0.0157650
861.005	0.0156532
861.083	0.0155610
861.161	0.0157341
861.239	0.0157518
861.318	0.0156568
861.396	0.0156078
861.474	0.0155723
861.552	0.0156701
861.630	0.0156757
861.708	0.0157265
861.786	0.0155951
861.864	0.0156565
861.943	0.0155176
862.021	0.0157333
862.099	0.0157233
862.177	0.0156600
862.255	0.0155842
862.333	0.0155150
862.411	0.0156540
862.489	0.0155766
862.568	0.0157633
862.646	0.0157040
862.724	0.0156383
862.802	0.0156079
862.880	0.0157198
862.958	0.0156380
863.036	0.0156996
863.114	0.0155985
863.193	0.0154790
863.271	0.0157200
863.349	0.0155663
863.427	0.0156036
863.505	0.0156884
863.583	0.0157809
863.661	0.0157759
863.739	0.0156180
863.818	0.0156700
863.896	0.0156987
863.974	0.0157197
864.052	0.0157700
864.130	0.0157391
864.208	0.0156515
864.286	0.0155698
864.364	0.0156445
864.443	0.0157555
864.521	0.0157253
864.599	0.0158272
864.677	0.0158016
864.755	0.0157307
864.833	0.0155202
864.911	0.0156925
864.989	0.0156926
865.068	0.0156733
865.146	0.0156815
865.224	0.0156987
865.302	0.0156332
865.380	0.0156011
865.458	0.0156854
865.536	0.0155225
865.614	0.0156844
865.693	0.0156657
865.771	0.0157226
865.849	0.0156709
865.927	0.0157912
866.005	0.0156576
866.083	0.0156631
866.161	0.0156287
866.239	0.0155625
866.318	0.0156200
866.396	0.0156129
866.474	0.0155965
866.552	0.0155626
866.630	0.0157007
866.708	0.0155968
866.786	0.0157131
866.864	0.0156881
866.943	0.0156800
867.021	0.0156111
867.099	0.0155869
867.177	0.0157745
867.255	0.0156788
867.333	0.0157251
867.411	0.0155544
867.489	0.0155836
867.568	0.0156010
867.646	0.0156924
867.724	0.0155898
867.802	0.0156702
867.880	0.0157270
867.958	0.0157734
868.036	0.0156245
868.114	0.0156219
868.193	0.0156222
868.271	0.0156901
868.349	0.0156386
868.427	0.0155654
868.505	0.0155862
868.583	0.0155248
868.661	0.0154899
868.739	0.0156332
868.818	0.0156189
868.896	0.0155271
868.974	0.0155279
869.052	0.0154295
869.130	0.0155783
869.208	0.0154980
869.286	0.0155446
869.364	0.0154657
869.443	0.0155332
869.521	0.0155599
869.599	0.0156463
869.677	0.0155231
869.755	0.0155351
869.833	0.0156140
869.911	0.0154871
869.989	0.0155569
870.068	0.0156477
870.146	0.0156137
870.224	0.0156592
870.302	0.0157201
870.380	0.0157238
870.458	0.0157269
870.536	0.0157143
870.614	0.0157356
870.693	0.0157343
870.771	0.0156268
870.849	0.0155823
870.927	0.0155684
871.005	0.0155428
871.083	0.0156746
871.161	0.0157420
871.239	0.0155984
871.318	0.0156770
871.396	0.0156042
871.474	0.0157114
871.552	0.0156889
871.630	0.0156895
871.708	0.0156318
871.786	0.0157700
871.864	0.0155299
871.943	0.0156274
872.021	0.0156564
872.099	0.0157041
872.177	0.0156272
872.255	0.0157030
872.333	0.0156521
872.411	0.0155688
872.489	0.0156709
872.568	0.0156098
872.646	0.0158576
872.724	0.0157101
872.802	0.0155572
872.880	0.0156673
872.958	0.0156154
873.036	0.0157234
873.114	0.0157621
873.193	0.0156694
873.271	0.0155729
873.349	0.0155448
873.427	0.0156537
873.505	0.0155049
873.583	0.0155361
873.661	0.0155161
873.739	0.0155208
873.818	0.0156605
873.896	0.0155573
873.974	0.0155975
874.052	0.0157003
874.130	0.0156537
874.208	0.0156512
874.286	0.0155750
874.364	0.0156427
874.443	0.0157163
874.521	0.0156321
874.599	0.0155437
874.677	0.0156496
874.755	0.0157749
874.833	0.0156605
874.911	0.0156702
874.989	0.0156764
875.068	0.0156042
875.146	0.0156188
875.224	0.0157363
875.302	0.0156715
875.380	0.0155688
875.458	0.0156471
875.536	0.0156203
875.614	0.0157315
875.693	0.0155893
875.771	0.0156583
875.849	0.0156787
875.927	0.0155421
876.005	0.0156977
876.083	0.0154073
876.161	0.0155328
876.239	0.0155361
876.318	0.0156419
876.396	0.0156573
876.474	0.0154807
876.552	0.0153564
876.630	0.0154400
876.708	0.0156100
876.786	0.0156600
876.864	0.0154423
876.943	0.0155869
877.021	0.0156435
877.099	0.0156665
877.177	0.0155617
877.255	0.0156144
877.333	0.0155704
877.411	0.0156963
877.489	0.0155605
877.568	0.0155322
877.646	0.0155425
877.724	0.0157688
877.802	0.0155961
877.880	0.0157182
877.958	0.0157413
878.036	0.0157046
878.114	0.0157636
878.193	0.0156322
878.271	0.0156779
878.349	0.0157471
878.427	0.0155650
878.505	0.0156293
878.583	0.0156891
878.661	0.0157431
878.739	0.0156043
878.818	0.0155796
878.896	0.0155852
878.974	0.0156590
879.052	0.0157196
879.130	0.0155957
879.208	0.0156953
879.286	0.0156850
879.364	0.0156152
879.443	0.0155513
879.521	0.0155133
879.599	0.0155019
879.677	0.0156258
879.755	0.0154801
879.833	0.0154948
879.911	0.0155359
879.989	0.0155926
880.068	0.0154935
880.146	0.0154569
880.224	0.0154581
880.302	0.0154527
880.380	0.0153860
880.458	0.0154088
880.536	0.0154392
880.614	0.0155624
880.693	0.0155488
880.771	0.0153988
880.849	0.0154512
880.927	0.0154466
881.005	0.0154661
881.083	0.0153277
881.161	0.0155164
881.239	0.0153914
881.318	0.0154668
881.396	0.0155615
881.474	0.0154415
881.552	0.0156062
881.630	0.0155911
881.708	0.0156155
881.786	0.0156042
881.864	0.0154776
881.943	0.0155826
882.021	0.0156922
882.099	0.0157677
882.177	0.0157250
882.255	0.0156477
882.333	0.0157353
882.411	0.0158610
882.489	0.0157660
882.568	0.0156882
882.646	0.0158723
882.724	0.0157441
882.802	0.0155225
882.880	0.0156265
882.958	0.0155772
883.036	0.0155846
883.114	0.0155627
883.193	0.0156217
883.271	0.0157374
883.349	0.0155769
883.427	0.0155951
883.505	0.0155678
883.583	0.0157288
883.661	0.0156297
883.739	0.0156084
883.818	0.0156202
883.896	0.0156709
883.974	0.0156700
884.052	0.0156732
884.130	0.0157132
884.208	0.0156876
884.286	0.0157822
884.364	0.0155528
884.443	0.0156495
884.521	0.0156929
884.599	0.0155110
884.677	0.0154035
884.755	0.0155832
884.833	0.0156523
884.911	0.0155437
884.989	0.0153776
885.068	0.0154424
885.146	0.0153915
885.224	0.0153933
885.302	0.0155251
885.380	0.0154366
885.458	0.0154761
885.536	0.0156324
885.614	0.0155043
885.693	0.0156100
885.771	0.0155904
885.849	0.0154578
885.927	0.0155872
886.005	0.0155736
886.083	0.0155449
886.161	0.0156230
886.239	0.0156397
886.318	0.0154655
886.396	0.0155866
886.474	0.0156644
886.552	0.0155624
886.630	0.0155508
886.708	0.0154832
886.786	0.0155345
886.864	0.0155840
886.943	0.0155794
887.021	0.0156118
887.099	0.0156898
887.177	0.0156662
887.255	0.0155515
887.333	0.0155887
887.411	0.0156149
887.489	0.0157199
887.568	0.0155724
887.646	0.0155985
887.724	0.0156826
887.802	0.0155723
887.880	0.0155389
887.958	0.0154453
888.036	0.0156362
888.114	0.0156311
888.193	0.0156109
888.271	0.0155389
888.349	0.0156232
888.427	0.0155760
888.505	0.0156102
888.583	0.0156230
888.661	0.0154269
888.739	0.0154076
888.818	0.0156165
888.896	0.0156350
888.974	0.0156506
889.052	0.0157289
889.130	0.0156582
889.208	0.0156865
889.286	0.0157051
889.364	0.0156619
889.443	0.0155912
889.521	0.0156321
889.599	0.0157478
889.677	0.0157337
889.755	0.0156696
889.833	0.0157369
889.911	0.0156931
889.989	0.0157861
890.068	0.0157113
890.146	0.0157009
890.224	0.0156137
890.302	0.0157201
890.380	0.0156301
890.458	0.0157415
890.536	0.0158165
890.614	0.0157782
890.693	0.0157855
890.771	0.0156806
890.849	0.0157433
890.927	0.0158426
891.005	0.0155618
891.083	0.0156226
891.161	0.0157100
891.239	0.0155389
891.318	0.0155253
891.396	0.0156667
891.474	0.0156494
891.552	0.0155942
891.630	0.0155830
891.708	0.0154535
891.786	0.0155975
891.864	0.0154148
891.943	0.0154811
892.021	0.0155512
892.099	0.0152886
892.177	0.0154382
892.255	0.0154610
892.333	0.0154494
892.411	0.0153839
892.489	0.0154081
892.568	0.0156083
892.646	0.0155168
892.724	0.0155190
892.802	0.0156434
892.880	0.0154980
892.958	0.0156443
893.036	0.0156175
893.114	0.0155969
893.193	0.0156065
893.271	0.0155703
893.349	0.0155752
893.427	0.0155506
893.505	0.0155100
893.583	0.0156495
893.661	0.0156652
893.739	0.0156786
893.818	0.0155861
893.896	0.0155298
893.974	0.0156449
894.052	0.0155183
894.130	0.0155865
894.208	0.0157207
894.286	0.0157101
894.364	0.0156100
894.443	0.0156001
894.521	0.0156814
894.599	0.0155774
894.677	0.0156683
894.755	0.0156748
894.833	0.0156966
894.911	0.0154614
894.989	0.0155031
895.068	0.0156875
895.146	0.0157114
895.224	0.0156148
895.302	0.0156554
895.380	0.0156712
895.458	0.0155524
895.536	0.0155729
895.614	0.0157000
895.693	0.0154696
895.771	0.0155510
895.849	0.0156358
895.927	0.0154948
896.005	0.0157676
896.083	0.0156910
896.161	0.0157106
896.239	0.0156717
896.318	0.0157142
896.396	0.0156399
896.474	0.0157156
896.552	0.0155833
896.630	0.0156639
896.708	0.0156784
896.786	0.0156655
896.864	0.0155326
896.943	0.0156363
897.021	0.0156412
897.099	0.0156690
897.177	0.0156053
897.255	0.0156541
897.333	0.0156406
897.411	0.0156990
897.489	0.0154744
897.568	0.0156080
897.646	0.0156731
897.724	0.0156427
897.802	0.0154359
897.880	0.0156216
897.958	0.0155278
898.036	0.0155760
898.114	0.0156089
898.193	0.0155071
898.271	0.0155489
898.349	0.0156007
898.427	0.0157152
898.505	0.0154363
898.583	0.0154816
898.661	0.0155614
898.739	0.0155704
898.818	0.0154602
898.896	0.0155148
898.974	0.0156132
899.052	0.0155219
899.130	0.0155637
899.208	0.0155563
899.286	0.0155783
899.364	0.0156366
899.443	0.0155501
899.521	0.0155573
899.599	0.0156377
899.677	0.0156181
899.755	0.0155915
899.833	0.0156192
899.911	0.0155624
899.989	0.0156018
900.068	0.0155194
900.146	0.0155890
900.224	0.0155441
900.302	0.0154961
900.380	0.0154192
900.458	0.0155939
900.536	0.0153695
900.614	0.0154857
900.693	0.0154282
900.771	0.0154255
900.849	0.0155659
900.927	0.0154778
901.005	0.0155963
901.083	0.0156113
901.161	0.0155183
901.239	0.0155466
901.318	0.0155508
901.396	0.0155175
901.474	0.0155434
901.552	0.0155624
901.630	0.0156230
901.708	0.0156335
901.786	0.0156665
901.864	0.0156146
901.943	0.0156683
902.021	0.0155276
902.099	0.0156187
902.177	0.0156359
902.255	0.0155695
902.333	0.0154170
902.411	0.0156022
902.489	0.0153993
902.568	0.0155520
902.646	0.0154927
902.724	0.0154341
902.802	0.0153130
902.880	0.0154032
902.958	0.0154532
903.036	0.0154020
903.114	0.0155088
903.193	0.0155322
903.271	0.0155353
903.349	0.0155209
903.427	0.0156154
903.505	0.0157029
903.583	0.0155355
903.661	0.0155289
903.739	0.0157362
903.818	0.0157630
903.896	0.0157008
903.974	0.0155814
904.052	0.0158224
904.130	0.0156980
904.208	0.0155992
904.286	0.0155348
904.364	0.0155579
904.443	0.0154772
904.521	0.0154030
904.599	0.0154299
904.677	0.0154676
904.755	0.0153896
904.833	0.0153703
904.911	0.0155062
904.989	0.0154833
905.068	0.0153329
905.146	0.0154575
905.224	0.0154268
905.302	0.0155728
905.380	0.0155253
905.458	0.0153083
905.536	0.0156149
905.614	0.0155796
905.693	0.0155963
905.771	0.0155846
905.849	0.0154790
905.927	0.0157334
906.005	0.0155626
906.083	0.0156534
906.161	0.0157815
906.239	0.0156062
906.318	0.0156146
906.396	0.0156600
906.474	0.0157600
906.552	0.0155981
906.630	0.0156297
906.708	0.0155045
906.786	0.0156618
906.864	0.0156758
906.943	0.0156097
907.021	0.0156158
907.099	0.0155717
907.177	0.0155078
907.255	0.0156484
907.333	0.0155634
907.411	0.0155217
907.489	0.0156309
907.568	0.0154964
907.646	0.0155642
907.724	0.0154615
907.802	0.0154305
907.880	0.0155328
907.958	0.0154970
908.036	0.0156416
908.114	0.0155368
908.193	0.0154274
908.271	0.0153689
908.349	0.0154854
908.427	0.0153860
908.505	0.0153534
908.583	0.0154739
908.661	0.0154116
908.739	0.0154916
908.818	0.0154712
908.896	0.0154542
908.974	0.0155225
909.052	0.0153852
909.130	0.0154996
909.208	0.0154909
909.286	0.0155099
909.364	0.0155780
909.443	0.0154589
909.521	0.0155263
909.599	0.0155189
909.677	0.0155040
909.755	0.0154849
909.833	0.0155581
909.911	0.0155753
909.989	0.0156607
910.068	0.0156224
910.146	0.0157428
910.224	0.0155284
910.302	0.0155968
910.380	0.0156432
910.458	0.0156744
910.536	0.0156958
910.614	0.0155843
910.693	0.0154030
910.771	0.0154990
910.849	0.0154964
910.927	0.0154665
911.005	0.0155199
911.083	0.0155681
911.161	0.0153962
911.239	0.0154975
911.318	0.0154969
911.396	0.0154557
911.474	0.0155188
911.552	0.0154640
911.630	0.0154719
911.708	0.0156426
911.786	0.0157281
911.864	0.0156885
911.943	0.0155830
912.021	0.0156242
912.099	0.0157368
912.177	0.0155264
912.255	0.0155527
912.333	0.0155952
912.411	0.0156081
912.489	0.0155165
912.568	0.0155372
912.646	0.0155766
912.724	0.0155534
912.802	0.0153954
912.880	0.0154775
912.958	0.0156297
913.036	0.0155628
913.114	0.0154703
913.193	0.0156902
913.271	0.0155537
913.349	0.0155046
913.427	0.0156823
913.505	0.0156499
913.583	0.0156818
913.661	0.0156704
913.739	0.0157551
913.818	0.0157079
913.896	0.0156872
913.974	0.0157703
914.052	0.0157315
914.130	0.0158324
914.208	0.0156564
914.286	0.0158910
914.364	0.0156715
914.443	0.0156593
914.521	0.0156802
914.599	0.0155136
914.677	0.0156632
914.755	0.0156215
914.833	0.0155420
914.911	0.0156168
914.989	0.0155915
915.068	0.0155856
915.146	0.0155934
915.224	0.0156306
915.302	0.0157222
915.380	0.0157614
915.458	0.0155304
915.536	0.0154893
915.614	0.0156390
915.693	0.0155495
915.771	0.0156038
915.849	0.0155608
915.927	0.0155463
916.005	0.0156641
916.083	0.0155205
916.161	0.0156803
916.239	0.0155669
916.318	0.0156824
916.396	0.0156880
916.474	0.0156372
916.552	0.0157113
916.630	0.0156122
916.708	0.0156107
916.786	0.0156808
916.864	0.0156208
916.943	0.0156211
917.021	0.0155666
917.099	0.0156419
917.177	0.0158296
917.255	0.0155985
917.333	0.0156012
917.411	0.0157079
917.489	0.0155471
917.568	0.0156845
917.646	0.0156593
917.724	0.0155867
917.802	0.0157719
917.880	0.0155383
917.958	0.0155991
918.036	0.0156168
918.114	0.0156797
918.193	0.0156448
918.271	0.0156212
918.349	0.0157442
918.427	0.0155936
918.505	0.0155734
918.583	0.0155413
918.661	0.0155560
918.739	0.0155095
918.818	0.0155325
918.896	0.0156380
918.974	0.0156769
919.052	0.0155221
919.130	0.0157407
919.208	0.0155604
919.286	0.0155997
919.364	0.0156709
919.443	0.0156071
919.521	0.0157308
919.599	0.0156800
919.677	0.0157246
919.755	0.0157201
919.833	0.0156577
919.911	0.0155462
919.989	0.0158111
920.068	0.0156505
920.146	0.0155600
920.224	0.0155655
920.302	0.0156543
920.380	0.0156853
920.458	0.0155907
920.536	0.0155647
920.614	0.0154951
920.693	0.0154945
920.771	0.0155862
920.849	0.0156517
920.927	0.0155215
921.005	0.0155646
921.083	0.0157014
921.161	0.0155408
921.239	0.0156788
921.318	0.0157012
921.396	0.0156810
921.474	0.0154823
921.552	0.0157716
921.630	0.0157091
921.708	0.0156556
921.786	0.0156615
921.864	0.0154694
921.943	0.0155617
922.021	0.0156834
922.099	0.0155289
922.177	0.0155882
922.255	0.0155971
922.333	0.0156912
922.411	0.0156561
922.489	0.0157233
922.568	0.0156461
922.646	0.0154867
922.724	0.0157318
922.802	0.0154253
922.880	0.0156625
922.958	0.0156937
923.036	0.0155815
923.114	0.0156576
923.193	0.0157416
923.271	0.0157357
923.349	0.0158044
923.427	0.0156016
923.505	0.0155954
923.583	0.0155887
923.661	0.0157125
923.739	0.0157278
923.818	0.0157912
923.896	0.0156318
923.974	0.0155405
924.052	0.0157833
924.130	0.0156013
924.208	0.0155785
924.286	0.0156842
924.364	0.0156049
924.443	0.0155834
924.521	0.0155289
924.599	0.0156100
924.677	0.0156752
924.755	0.0156593
924.833	0.0155456
924.911	0.0155939
924.989	0.0156235
925.068	0.0156055
925.146	0.0155948
925.224	0.0156126
925.302	0.0155859
925.380	0.0155487
925.458	0.0154146
925.536	0.0154218
925.614	0.0154758
925.693	0.0155964
925.771	0.0154980
925.849	0.0155556
925.927	0.0156297
926.005	0.0155079
926.083	0.0154583
926.161	0.0155378
926.239	0.0155020
926.318	0.0155607
926.396	0.0155054
926.474	0.0156822
926.552	0.0153999
926.630	0.0154923
926.708	0.0155601
926.786	0.0155238
926.864	0.0155214
926.943	0.0155676
927.021	0.0155112
927.099	0.0155488
927.177	0.0156031
927.255	0.0155343
927.333	0.0155500
927.411	0.0155954
927.489	0.0154526
927.568	0.0156325
927.646	0.0153165
927.724	0.0154650
927.802	0.0154553
927.880	0.0155131
927.958	0.0155926
928.036	0.0154941
928.114	0.0153760
928.193	0.0154900
928.271	0.0153791
928.349	0.0154543
928.427	0.0155259
928.505	0.0155792
928.583	0.0155607
928.661	0.0154665
928.739	0.0154855
928.818	0.0156749
928.896	0.0155712
928.974	0.0154581
929.052	0.0155175
929.130	0.0155540
929.208	0.0156197
929.286	0.0156467
929.364	0.0155923
929.443	0.0157068
929.521	0.0153886
929.599	0.0155071
929.677	0.0156252
929.755	0.0155199
929.833	0.0156236
929.911	0.0156671
929.989	0.0155375
930.068	0.0156371
930.146	0.0155341
930.224	0.0157787
930.302	0.0156364
930.380	0.0155207
930.458	0.0155553
930.536	0.0154836
930.614	0.0154545
930.693	0.0156725
930.771	0.0154478
930.849	0.0156576
930.927	0.0155103
931.005	0.0155939
931.083	0.0155965
931.161	0.0155503
931.239	0.0156551
931.318	0.0155701
931.396	0.0155616
931.474	0.0155956
931.552	0.0155592
931.630	0.0155564
931.708	0.0156254
931.786	0.0157671
931.864	0.0155247
931.943	0.0157828
932.021	0.0156512
932.099	0.0156915
932.177	0.0157184
932.255	0.0155686
932.333	0.0156184
932.411	0.0156115
932.489	0.0155991
932.568	0.0157607
932.646	0.0156519
932.724	0.0156486
932.802	0.0155514
932.880	0.0155246
932.958	0.0156270
933.036	0.0154910
933.114	0.0156568
933.193	0.0156001
933.271	0.0156063
933.349	0.0154316
933.427	0.0155141
933.505	0.0155408
933.583	0.0155467
933.661	0.0155930
933.739	0.0155945
933.818	0.0155299
933.896	0.0156555
933.974	0.0156223
934.052	0.0154681
934.130	0.0155045
934.208	0.0156430
934.286	0.0156648
934.364	0.0156808
934.443	0.0154946
934.521	0.0155682
934.599	0.0156345
934.677	0.0154963
934.755	0.0155939
934.833	0.0156378
934.911	0.0156214
934.989	0.0155918
935.068	0.0156614
935.146	0.0155679
935.224	0.0155221
935.302	0.0154554
935.380	0.0155611
935.458	0.0156512
935.536	0.0155940
935.614	0.0156031
935.693	0.0155062
935.771	0.0155560
935.849	0.0155498
935.927	0.0157114
936.005	0.0155003
936.083	0.0155235
936.161	0.0156520
936.239	0.0157240
936.318	0.0156802
936.396	0.0156437
936.474	0.0157533
936.552	0.0157146
936.630	0.0155430
936.708	0.0157374
936.786	0.0158147
936.864	0.0155777
936.943	0.0156732
937.021	0.0157404
937.099	0.0155843
937.177	0.0155891
937.255	0.0156915
937.333	0.0156611
937.411	0.0155177
937.489	0.0155650
937.568	0.0156821
937.646	0.0156090
937.724	0.0157772
937.802	0.0157282
937.880	0.0156379
937.958	0.0155269
938.036	0.0157039
938.114	0.0157386
938.193	0.0157354
938.271	0.0156734
938.349	0.0156831
938.427	0.0157549
938.505	0.0156673
938.583	0.0155730
938.661	0.0156123
938.739	0.0157970
938.818	0.0156539
938.896	0.0155422
938.974	0.0155172
939.052	0.0155528
939.130	0.0155460
939.208	0.0155783
939.286	0.0155600
939.364	0.0156314
939.443	0.0155565
939.521	0.0157030
939.599	0.0154966
939.677	0.0156206
939.755	0.0155724
939.833	0.0155933
939.911	0.0156487
939.989	0.0156881
940.068	0.0155542
940.146	0.0156425
940.224	0.0156629
940.302	0.0156535
940.380	0.0156701
940.458	0.0155864
940.536	0.0155261
940.614	0.0156581
940.693	0.0155984
940.771	0.0156512
940.849	0.0156808
940.927	0.0156676
941.005	0.0155643
941.083	0.0156722
941.161	0.0156355
941.239	0.0156004
941.318	0.0155216
941.396	0.0156913
941.474	0.0155864
941.552	0.0156388
941.630	0.0157160
941.708	0.0156141
941.786	0.0156743
941.864	0.0156252
941.943	0.0158521
942.021	0.0156859
942.099	0.0155830
942.177	0.0157201
942.255	0.0155767
942.333	0.0156049
942.411	0.0155585
942.489	0.0157083
942.568	0.0157292
942.646	0.0155262
942.724	0.0156030
942.802	0.0156905
942.880	0.0156816
942.958	0.0156278
943.036	0.0155121
943.114	0.0155973
943.193	0.0155859
943.271	0.0157648
943.349	0.0157995
943.427	0.0157063
943.505	0.0156967
943.583	0.0155682
943.661	0.0156585
943.739	0.0156325
943.818	0.0156512
943.896	0.0156384
943.974	0.0157507
944.052	0.0157880
944.130	0.0158305
944.208	0.0157390
944.286	0.0156718
944.364	0.0156722
944.443	0.0157162
944.521	0.0155431
944.599	0.0157381
944.677	0.0155788
944.755	0.0156083
944.833	0.0154774
944.911	0.0155731
944.989	0.0156396
945.068	0.0155598
945.146	0.0156236
945.224	0.0155928
945.302	0.0156173
945.380	0.0156158
945.458	0.0156691
945.536	0.0155898
945.614	0.0156769
945.693	0.0154377
945.771	0.0157097
945.849	0.0156019
945.927	0.0155784
946.005	0.0156545
946.083	0.0157323
946.161	0.0156707
946.239	0.0155573
946.318	0.0156669
946.396	0.0156496
946.474	0.0156931
946.552	0.0156329
946.630	0.0155621
946.708	0.0156129
946.786	0.0156721
946.864	0.0157421
946.943	0.0156631
947.021	0.0156705
947.099	0.0157245
947.177	0.0154633
947.255	0.0155827
947.333	0.0155618
947.411	0.0156224
947.489	0.0157359
947.568	0.0156490
947.646	0.0156047
947.724	0.0157210
947.802	0.0155103
947.880	0.0156535
947.958	0.0155086
948.036	0.0156696
948.114	0.0156232
948.193	0.0155786
948.271	0.0156254
948.349	0.0155852
948.427	0.0157355
948.505	0.0155928
948.583	0.0157101
948.661	0.0155953
948.739	0.0156678
948.818	0.0155588
948.896	0.0156490
948.974	0.0156207
949.052	0.0156293
949.130	0.0156638
949.208	0.0157514
949.286	0.0156821
949.364	0.0155112
949.443	0.0157635
949.521	0.0158420
949.599	0.0156310
949.677	0.0154910
949.755	0.0156783
949.833	0.0157628
949.911	0.0156287
949.989	0.0155583
950.068	0.0154855
950.146	0.0155249
950.224	0.0156429
950.302	0.0157088
950.380	0.0156208
950.458	0.0156266
950.536	0.0156751
950.614	0.0157183
950.693	0.0155826
950.771	0.0155524
950.849	0.0156195
950.927	0.0155875
951.005	0.0155722
951.083	0.0157096
951.161	0.0156310
951.239	0.0155923
951.318	0.0155262
951.396	0.0156557
951.474	0.0156870
951.552	0.0155299
951.630	0.0155396
951.708	0.0157230
951.786	0.0156229
951.864	0.0156652
951.943	0.0156236
952.021	0.0155723
952.099	0.0155935
952.177	0.0155944
952.255	0.0158077
952.333	0.0155641
952.411	0.0155867
952.489	0.0155627
952.568	0.0154801
952.646	0.0156200
952.724	0.0156727
952.802	0.0155067
952.880	0.0154879
952.958	0.0154913
953.036	0.0156025
953.114	0.0156295
953.193	0.0154712
953.271	0.0155745
953.349	0.0156495
953.427	0.0156686
953.505	0.0155463
953.583	0.0156111
953.661	0.0156501
953.739	0.0155774
953.818	0.0154612
953.896	0.0157488
953.974	0.0157607
954.052	0.0155962
954.130	0.0156734
954.208	0.0156675
954.286	0.0156277
954.364	0.0155534
954.443	0.0155944
954.521	0.0156039
954.599	0.0157381
954.677	0.0155051
954.755	0.0156485
954.833	0.0155389
954.911	0.0156435
954.989	0.0157589
955.068	0.0156636
955.146	0.0155677
955.224	0.0155702
955.302	0.0156636
955.380	0.0157024
955.458	0.0156790
955.536	0.0156367
955.614	0.0157903
955.693	0.0155611
955.771	0.0156802
955.849	0.0156622
955.927	0.0156856
956.005	0.0157561
956.083	0.0156863
956.161	0.0156239
956.239	0.0157079
956.318	0.0156630
956.396	0.0155560
956.474	0.0155224
956.552	0.0156828
956.630	0.0155796
956.708	0.0154991
956.786	0.0156599
956.864	0.0155850
956.943	0.0156510
957.021	0.0157167
957.099	0.0155873
957.177	0.0155552
957.255	0.0156548
957.333	0.0155642
957.411	0.0155773
957.489	0.0155596
957.568	0.0155345
957.646	0.0156701
957.724	0.0156907
957.802	0.0155905
957.880	0.0155704
957.958	0.0156781
958.036	0.0156748
958.114	0.0156666
958.193	0.0157432
958.271	0.0156703
958.349	0.0156004
958.427	0.0155219
958.505	0.0156004
958.583	0.0157082
958.661	0.0156090
958.739	0.0156905
958.818	0.0156603
958.896	0.0156424
958.974	0.0156639
959.052	0.0157410
959.130	0.0156988
959.208	0.0157190
959.286	0.0156329
959.364	0.0156220
959.443	0.0157402
959.521	0.0156011
959.599	0.0155474
959.677	0.0156070
959.755	0.0156612
959.833	0.0156213
959.911	0.0156012
