05/17/2022	16:59:54	Ver.	4.1	UNKNOWN
Optical Delay	639.982744	Delta X		0.078125	Sweeps	1	Scan Rate	0/0
Coordinates	Axis 1	NaN	Axis 2	NaN	Axis 3	NaN	Axis 4	NaN	Axis 5	NaN	Axis 6	0.000000
TX Power	0.000000	RX Power	0.000000

639.983	0.0162720
640.061	0.0162836
640.139	0.0162981
640.217	0.0162921
640.295	0.0162691
640.373	0.0162460
640.451	0.0162231
640.530	0.0162222
640.608	0.0161768
640.686	0.0163853
640.764	0.0162304
640.842	0.0162508
640.920	0.0163007
640.998	0.0162437
641.076	0.0162181
641.155	0.0162637
641.233	0.0163655
641.311	0.0162949
641.389	0.0162711
641.467	0.0164851
641.545	0.0164201
641.623	0.0162440
641.701	0.0163738
641.780	0.0162220
641.858	0.0163596
641.936	0.0163917
642.014	0.0162461
642.092	0.0163599
642.170	0.0162713
642.248	0.0163343
642.326	0.0163319
642.405	0.0162955
642.483	0.0164194
642.561	0.0162392
642.639	0.0163501
642.717	0.0163415
642.795	0.0162735
642.873	0.0162159
642.951	0.0161053
643.030	0.0162975
643.108	0.0163181
643.186	0.0162829
643.264	0.0162009
643.342	0.0162669
643.420	0.0162413
643.498	0.0160233
643.576	0.0160878
643.655	0.0162667
643.733	0.0162431
643.811	0.0161663
643.889	0.0161845
643.967	0.0160936
644.045	0.0161418
644.123	0.0162698
644.201	0.0161673
644.280	0.0160920
644.358	0.0161903
644.436	0.0162667
644.514	0.0163098
644.592	0.0161732
644.670	0.0161875
644.748	0.0162435
644.826	0.0163049
644.905	0.0162982
644.983	0.0162849
645.061	0.0162509
645.139	0.0162135
645.217	0.0162373
645.295	0.0161547
645.373	0.0161192
645.451	0.0159313
645.530	0.0159512
645.608	0.0160287
645.686	0.0161061
645.764	0.0159042
645.842	0.0160240
645.920	0.0160776
645.998	0.0160358
646.076	0.0160381
646.155	0.0161372
646.233	0.0160337
646.311	0.0162188
646.389	0.0161766
646.467	0.0160590
646.545	0.0162469
646.623	0.0162528
646.701	0.0162086
646.780	0.0160887
646.858	0.0161898
646.936	0.0162271
647.014	0.0162717
647.092	0.0163103
647.170	0.0163326
647.248	0.0163131
647.326	0.0162867
647.405	0.0163001
647.483	0.0163265
647.561	0.0164705
647.639	0.0162476
647.717	0.0161971
647.795	0.0162443
647.873	0.0162183
647.951	0.0162544
648.030	0.0164261
648.108	0.0163468
648.186	0.0164629
648.264	0.0163560
648.342	0.0164527
648.420	0.0162997
648.498	0.0163359
648.576	0.0163598
648.655	0.0163541
648.733	0.0165099
648.811	0.0163481
648.889	0.0164042
648.967	0.0163443
649.045	0.0164754
649.123	0.0164308
649.201	0.0162786
649.280	0.0163117
649.358	0.0164496
649.436	0.0164349
649.514	0.0165107
649.592	0.0165334
649.670	0.0163229
649.748	0.0164632
649.826	0.0164399
649.905	0.0165084
649.983	0.0163696
650.061	0.0163265
650.139	0.0163249
650.217	0.0163251
650.295	0.0163201
650.373	0.0162726
650.451	0.0163605
650.530	0.0163863
650.608	0.0163321
650.686	0.0162747
650.764	0.0163376
650.842	0.0164018
650.920	0.0162352
650.998	0.0162142
651.076	0.0161713
651.155	0.0162305
651.233	0.0162662
651.311	0.0162987
651.389	0.0163219
651.467	0.0162937
651.545	0.0162733
651.623	0.0163828
651.701	0.0163107
651.780	0.0161896
651.858	0.0163193
651.936	0.0163074
652.014	0.0162948
652.092	0.0162197
652.170	0.0161725
652.248	0.0161958
652.326	0.0163300
652.405	0.0161596
652.483	0.0162864
652.561	0.0163040
652.639	0.0161170
652.717	0.0161440
652.795	0.0161797
652.873	0.0160971
652.951	0.0161934
653.030	0.0162108
653.108	0.0159580
653.186	0.0160445
653.264	0.0160313
653.342	0.0159637
653.420	0.0160968
653.498	0.0161797
653.576	0.0160415
653.655	0.0161423
653.733	0.0162425
653.811	0.0162110
653.889	0.0162068
653.967	0.0161138
654.045	0.0162459
654.123	0.0163371
654.201	0.0163519
654.280	0.0163065
654.358	0.0162113
654.436	0.0162022
654.514	0.0162273
654.592	0.0161594
654.670	0.0162471
654.748	0.0163783
654.826	0.0161382
654.905	0.0162836
654.983	0.0162391
655.061	0.0162906
655.139	0.0162100
655.217	0.0162243
655.295	0.0165657
655.373	0.0164124
655.451	0.0162322
655.530	0.0164014
655.608	0.0164794
655.686	0.0163976
655.764	0.0164059
655.842	0.0163607
655.920	0.0164853
655.998	0.0163857
656.076	0.0164278
656.155	0.0164901
656.233	0.0164520
656.311	0.0164620
656.389	0.0164095
656.467	0.0164499
656.545	0.0163177
656.623	0.0164938
656.701	0.0163602
656.780	0.0164094
656.858	0.0161259
656.936	0.0163924
657.014	0.0163299
657.092	0.0163585
657.170	0.0164077
657.248	0.0163666
657.326	0.0164042
657.405	0.0164020
657.483	0.0162949
657.561	0.0162937
657.639	0.0163540
657.717	0.0163444
657.795	0.0162750
657.873	0.0162064
657.951	0.0163422
658.030	0.0163134
658.108	0.0162959
658.186	0.0163601
658.264	0.0163086
658.342	0.0163726
658.420	0.0162613
658.498	0.0163043
658.576	0.0163643
658.655	0.0163178
658.733	0.0163470
658.811	0.0162273
658.889	0.0163546
658.967	0.0163062
659.045	0.0161953
659.123	0.0162539
659.201	0.0162650
659.280	0.0162799
659.358	0.0162054
659.436	0.0162324
659.514	0.0161659
659.592	0.0162554
659.670	0.0160777
659.748	0.0160457
659.826	0.0160225
659.905	0.0162469
659.983	0.0161279
660.061	0.0160091
660.139	0.0162304
660.217	0.0162626
660.295	0.0161433
660.373	0.0163177
660.451	0.0161651
660.530	0.0161369
660.608	0.0162425
660.686	0.0162291
660.764	0.0162907
660.842	0.0162798
660.920	0.0161819
660.998	0.0162092
661.076	0.0162562
661.155	0.0161751
661.233	0.0163135
661.311	0.0162927
661.389	0.0163058
661.467	0.0161700
661.545	0.0162750
661.623	0.0162961
661.701	0.0161655
661.780	0.0162435
661.858	0.0163013
661.936	0.0162365
662.014	0.0163140
662.092	0.0161987
662.170	0.0162944
662.248	0.0161290
662.326	0.0161373
662.405	0.0161811
662.483	0.0161234
662.561	0.0162024
662.639	0.0161524
662.717	0.0163532
662.795	0.0162781
662.873	0.0162672
662.951	0.0161942
663.030	0.0161599
663.108	0.0163266
663.186	0.0164161
663.264	0.0163702
663.342	0.0162629
663.420	0.0163092
663.498	0.0162980
663.576	0.0163029
663.655	0.0162383
663.733	0.0161985
663.811	0.0162750
663.889	0.0163267
663.967	0.0162292
664.045	0.0161018
664.123	0.0161993
664.201	0.0164381
664.280	0.0163471
664.358	0.0162955
664.436	0.0163895
664.514	0.0164093
664.592	0.0165810
664.670	0.0163921
664.748	0.0163908
664.826	0.0165900
664.905	0.0165672
664.983	0.0165054
665.061	0.0164912
665.139	0.0164435
665.217	0.0164957
665.295	0.0163223
665.373	0.0163934
665.451	0.0164434
665.530	0.0163869
665.608	0.0162354
665.686	0.0162318
665.764	0.0162943
665.842	0.0161673
665.920	0.0163035
665.998	0.0163517
666.076	0.0162971
666.155	0.0163326
666.233	0.0163074
666.311	0.0162609
666.389	0.0163811
666.467	0.0164796
666.545	0.0163097
666.623	0.0164519
666.701	0.0164941
666.780	0.0165845
666.858	0.0166964
666.936	0.0167036
667.014	0.0166563
667.092	0.0166075
667.170	0.0165965
667.248	0.0165750
667.326	0.0165671
667.405	0.0166411
667.483	0.0165804
667.561	0.0164624
667.639	0.0164354
667.717	0.0163457
667.795	0.0162833
667.873	0.0163364
667.951	0.0162586
668.030	0.0161220
668.108	0.0160873
668.186	0.0160880
668.264	0.0161691
668.342	0.0160667
668.420	0.0160266
668.498	0.0160201
668.576	0.0161781
668.655	0.0163175
668.733	0.0163474
668.811	0.0163684
668.889	0.0164195
668.967	0.0165506
669.045	0.0165500
669.123	0.0165823
669.201	0.0166683
669.280	0.0166272
669.358	0.0168122
669.436	0.0167186
669.514	0.0169090
669.592	0.0169014
669.670	0.0167548
669.748	0.0166445
669.826	0.0167091
669.905	0.0167039
669.983	0.0167564
670.061	0.0165051
670.139	0.0164570
670.217	0.0163620
670.295	0.0164133
670.373	0.0163382
670.451	0.0162678
670.530	0.0162032
670.608	0.0160518
670.686	0.0160751
670.764	0.0159932
670.842	0.0158208
670.920	0.0157389
670.998	0.0157034
671.076	0.0156680
671.155	0.0156880
671.233	0.0156674
671.311	0.0155674
671.389	0.0157746
671.467	0.0157207
671.545	0.0158579
671.623	0.0158523
671.701	0.0160021
671.780	0.0160085
671.858	0.0161284
671.936	0.0163760
672.014	0.0165277
672.092	0.0164809
672.170	0.0166882
672.248	0.0168251
672.326	0.0168959
672.405	0.0168172
672.483	0.0169518
672.561	0.0170094
672.639	0.0170567
672.717	0.0169711
672.795	0.0169418
672.873	0.0168880
672.951	0.0168658
673.030	0.0166949
673.108	0.0167203
673.186	0.0164877
673.264	0.0164294
673.342	0.0162655
673.420	0.0162402
673.498	0.0160254
673.576	0.0158816
673.655	0.0158073
673.733	0.0157188
673.811	0.0156702
673.889	0.0156531
673.967	0.0155979
674.045	0.0156985
674.123	0.0155885
674.201	0.0156328
674.280	0.0155935
674.358	0.0157636
674.436	0.0159511
674.514	0.0159932
674.592	0.0159945
674.670	0.0160303
674.748	0.0162265
674.826	0.0164533
674.905	0.0162621
674.983	0.0164124
675.061	0.0165075
675.139	0.0164130
675.217	0.0165690
675.295	0.0165865
675.373	0.0166211
675.451	0.0166790
675.530	0.0167142
675.608	0.0166527
675.686	0.0167943
675.764	0.0167062
675.842	0.0166109
675.920	0.0166649
675.998	0.0168074
676.076	0.0166342
676.155	0.0167300
676.233	0.0167184
676.311	0.0167440
676.389	0.0167523
676.467	0.0166641
676.545	0.0167820
676.623	0.0167554
676.701	0.0166441
676.780	0.0167775
676.858	0.0165560
676.936	0.0165671
677.014	0.0167114
677.092	0.0166183
677.170	0.0163579
677.248	0.0164450
677.326	0.0163813
677.405	0.0162340
677.483	0.0163029
677.561	0.0162457
677.639	0.0160014
677.717	0.0160989
677.795	0.0158867
677.873	0.0157825
677.951	0.0158706
678.030	0.0158662
678.108	0.0159962
678.186	0.0160021
678.264	0.0160203
678.342	0.0158710
678.420	0.0160434
678.498	0.0162165
678.576	0.0162216
678.655	0.0161924
678.733	0.0163272
678.811	0.0164925
678.889	0.0166386
678.967	0.0165524
679.045	0.0166222
679.123	0.0168427
679.201	0.0166741
679.280	0.0166975
679.358	0.0168608
679.436	0.0167098
679.514	0.0166885
679.592	0.0165695
679.670	0.0166782
679.748	0.0164731
679.826	0.0162261
679.905	0.0162377
679.983	0.0161925
680.061	0.0160971
680.139	0.0159560
680.217	0.0156824
680.295	0.0157006
680.373	0.0154919
680.451	0.0154028
680.530	0.0153685
680.608	0.0153763
680.686	0.0153937
680.764	0.0152896
680.842	0.0153008
680.920	0.0154240
680.998	0.0155986
681.076	0.0154657
681.155	0.0157594
681.233	0.0159462
681.311	0.0160377
681.389	0.0161656
681.467	0.0163625
681.545	0.0163748
681.623	0.0166061
681.701	0.0167599
681.780	0.0168013
681.858	0.0170353
681.936	0.0170464
682.014	0.0171925
682.092	0.0172150
682.170	0.0173906
682.248	0.0176038
682.326	0.0174588
682.405	0.0174111
682.483	0.0174242
682.561	0.0174381
682.639	0.0173624
682.717	0.0173183
682.795	0.0172203
682.873	0.0170531
682.951	0.0169552
683.030	0.0168637
683.108	0.0166396
683.186	0.0165456
683.264	0.0163026
683.342	0.0164329
683.420	0.0160934
683.498	0.0160967
683.576	0.0159370
683.655	0.0159045
683.733	0.0156785
683.811	0.0157777
683.889	0.0157442
683.967	0.0156762
684.045	0.0154501
684.123	0.0155680
684.201	0.0156609
684.280	0.0154818
684.358	0.0154333
684.436	0.0154319
684.514	0.0155336
684.592	0.0153816
684.670	0.0152186
684.748	0.0153931
684.826	0.0154195
684.905	0.0154234
684.983	0.0154290
685.061	0.0153175
685.139	0.0153745
685.217	0.0154330
685.295	0.0155453
685.373	0.0155997
685.451	0.0155677
685.530	0.0155630
685.608	0.0158751
685.686	0.0158043
685.764	0.0158172
685.842	0.0160575
685.920	0.0162146
685.998	0.0162031
686.076	0.0161943
686.155	0.0165880
686.233	0.0166469
686.311	0.0167827
686.389	0.0170240
686.467	0.0172491
686.545	0.0173566
686.623	0.0174995
686.701	0.0175974
686.780	0.0178213
686.858	0.0181153
686.936	0.0180788
687.014	0.0181374
687.092	0.0181326
687.170	0.0180442
687.248	0.0180938
687.326	0.0180577
687.405	0.0180491
687.483	0.0179552
687.561	0.0175968
687.639	0.0174213
687.717	0.0173018
687.795	0.0171201
687.873	0.0167691
687.951	0.0163924
688.030	0.0161636
688.108	0.0159597
688.186	0.0157052
688.264	0.0154507
688.342	0.0152583
688.420	0.0150506
688.498	0.0148862
688.576	0.0147133
688.655	0.0144987
688.733	0.0144505
688.811	0.0146507
688.889	0.0145712
688.967	0.0146400
689.045	0.0148912
689.123	0.0148940
689.201	0.0151014
689.280	0.0152910
689.358	0.0154826
689.436	0.0156577
689.514	0.0157687
689.592	0.0162310
689.670	0.0163010
689.748	0.0165318
689.826	0.0167874
689.905	0.0168068
689.983	0.0168566
690.061	0.0170279
690.139	0.0170276
690.217	0.0170348
690.295	0.0169049
690.373	0.0168030
690.451	0.0168711
690.530	0.0167716
690.608	0.0166595
690.686	0.0164853
690.764	0.0164568
690.842	0.0162506
690.920	0.0161936
690.998	0.0161771
691.076	0.0160362
691.155	0.0159263
691.233	0.0160061
691.311	0.0158540
691.389	0.0158334
691.467	0.0158761
691.545	0.0157675
691.623	0.0158282
691.701	0.0158753
691.780	0.0158780
691.858	0.0158382
691.936	0.0159520
692.014	0.0159937
692.092	0.0161203
692.170	0.0162003
692.248	0.0162863
692.326	0.0165752
692.405	0.0166000
692.483	0.0167590
692.561	0.0169236
692.639	0.0171770
692.717	0.0172527
692.795	0.0173203
692.873	0.0173431
692.951	0.0174036
693.030	0.0174549
693.108	0.0174140
693.186	0.0172195
693.264	0.0171553
693.342	0.0171122
693.420	0.0170152
693.498	0.0167434
693.576	0.0166486
693.655	0.0164493
693.733	0.0162566
693.811	0.0160541
693.889	0.0160079
693.967	0.0158979
694.045	0.0157175
694.123	0.0157025
694.201	0.0155325
694.280	0.0154700
694.358	0.0153546
694.436	0.0154936
694.514	0.0155121
694.592	0.0155222
694.670	0.0156150
694.748	0.0156499
694.826	0.0156245
694.905	0.0158689
694.983	0.0159259
695.061	0.0159090
695.139	0.0159196
695.217	0.0160809
695.295	0.0160703
695.373	0.0160917
695.451	0.0162350
695.530	0.0161893
695.608	0.0161623
695.686	0.0161757
695.764	0.0163479
695.842	0.0162399
695.920	0.0163039
695.998	0.0161236
696.076	0.0161650
696.155	0.0163905
696.233	0.0163093
696.311	0.0159879
696.389	0.0160904
696.467	0.0159599
696.545	0.0160732
696.623	0.0159382
696.701	0.0158797
696.780	0.0157617
696.858	0.0158186
696.936	0.0158416
697.014	0.0156195
697.092	0.0157444
697.170	0.0157928
697.248	0.0158102
697.326	0.0159617
697.405	0.0160128
697.483	0.0161594
697.561	0.0161772
697.639	0.0163602
697.717	0.0164736
697.795	0.0165706
697.873	0.0165897
697.951	0.0168404
698.030	0.0170131
698.108	0.0171471
698.186	0.0172440
698.264	0.0174099
698.342	0.0174861
698.420	0.0173798
698.498	0.0175219
698.576	0.0175463
698.655	0.0174087
698.733	0.0177080
698.811	0.0176083
698.889	0.0174651
698.967	0.0172648
699.045	0.0172691
699.123	0.0171658
699.201	0.0169813
699.280	0.0169194
699.358	0.0167974
699.436	0.0166595
699.514	0.0164520
699.592	0.0162863
699.670	0.0161090
699.748	0.0158944
699.826	0.0157568
699.905	0.0155566
699.983	0.0154112
700.061	0.0153239
700.139	0.0152521
700.217	0.0150621
700.295	0.0150288
700.373	0.0150515
700.451	0.0149781
700.530	0.0150848
700.608	0.0152508
700.686	0.0154475
700.764	0.0154343
700.842	0.0153979
700.920	0.0155832
700.998	0.0156815
701.076	0.0157502
701.155	0.0159249
701.233	0.0160571
701.311	0.0160743
701.389	0.0162545
701.467	0.0164011
701.545	0.0164600
701.623	0.0165859
701.701	0.0165727
701.780	0.0164736
701.858	0.0166408
701.936	0.0167314
702.014	0.0165418
702.092	0.0166765
702.170	0.0166727
702.248	0.0165990
702.326	0.0166978
702.405	0.0166242
702.483	0.0166267
702.561	0.0167157
702.639	0.0166418
702.717	0.0168706
702.795	0.0166891
702.873	0.0167011
702.951	0.0167540
703.030	0.0166582
703.108	0.0165527
703.186	0.0167159
703.264	0.0165054
703.342	0.0164703
703.420	0.0164539
703.498	0.0162705
703.576	0.0163216
703.655	0.0163100
703.733	0.0162349
703.811	0.0162563
703.889	0.0161354
703.967	0.0160091
704.045	0.0161149
704.123	0.0160722
704.201	0.0159681
704.280	0.0160455
704.358	0.0159799
704.436	0.0159595
704.514	0.0159569
704.592	0.0159989
704.670	0.0159344
704.748	0.0159222
704.826	0.0159234
704.905	0.0159618
704.983	0.0158948
705.061	0.0159621
705.139	0.0158744
705.217	0.0158869
705.295	0.0159615
705.373	0.0159949
705.451	0.0159587
705.530	0.0158073
705.608	0.0158690
705.686	0.0159258
705.764	0.0159104
705.842	0.0158776
705.920	0.0158954
705.998	0.0160747
706.076	0.0161614
706.155	0.0161880
706.233	0.0162665
706.311	0.0163159
706.389	0.0162830
706.467	0.0165092
706.545	0.0164120
706.623	0.0164246
706.701	0.0165837
706.780	0.0164851
706.858	0.0165260
706.936	0.0165908
707.014	0.0167992
707.092	0.0167298
707.170	0.0168902
707.248	0.0166493
707.326	0.0166918
707.405	0.0167529
707.483	0.0169074
707.561	0.0170441
707.639	0.0171361
707.717	0.0169575
707.795	0.0170552
707.873	0.0171079
707.951	0.0169189
708.030	0.0169396
708.108	0.0168800
708.186	0.0169332
708.264	0.0166781
708.342	0.0165277
708.420	0.0164824
708.498	0.0163786
708.576	0.0161320
708.655	0.0159630
708.733	0.0158166
708.811	0.0157312
708.889	0.0156748
708.967	0.0156367
709.045	0.0155879
709.123	0.0156329
709.201	0.0154985
709.280	0.0154731
709.358	0.0154728
709.436	0.0156514
709.514	0.0156828
709.592	0.0156525
709.670	0.0157802
709.748	0.0159235
709.826	0.0159425
709.905	0.0160227
709.983	0.0161023
710.061	0.0161754
710.139	0.0163192
710.217	0.0163178
710.295	0.0163459
710.373	0.0163176
710.451	0.0165028
710.530	0.0164520
710.608	0.0164999
710.686	0.0165728
710.764	0.0165065
710.842	0.0165270
710.920	0.0165525
710.998	0.0163062
711.076	0.0165232
711.155	0.0164167
711.233	0.0162666
711.311	0.0162526
711.389	0.0161695
711.467	0.0161131
711.545	0.0160762
711.623	0.0160072
711.701	0.0160674
711.780	0.0160504
711.858	0.0160345
711.936	0.0159570
712.014	0.0160720
712.092	0.0160714
712.170	0.0161325
712.248	0.0159628
712.326	0.0161556
712.405	0.0163087
712.483	0.0162812
712.561	0.0163316
712.639	0.0164042
712.717	0.0164378
712.795	0.0165414
712.873	0.0164978
712.951	0.0165157
713.030	0.0164664
713.108	0.0164277
713.186	0.0164883
713.264	0.0165560
713.342	0.0165128
713.420	0.0163972
713.498	0.0164156
713.576	0.0164446
713.655	0.0166149
713.733	0.0165945
713.811	0.0164592
713.889	0.0165355
713.967	0.0162327
714.045	0.0161794
714.123	0.0161905
714.201	0.0161906
714.280	0.0161967
714.358	0.0161420
714.436	0.0160831
714.514	0.0159993
714.592	0.0159930
714.670	0.0159052
714.748	0.0158736
714.826	0.0156693
714.905	0.0157503
714.983	0.0157243
715.061	0.0156384
715.139	0.0158272
715.217	0.0158282
715.295	0.0158145
715.373	0.0159229
715.451	0.0159331
715.530	0.0159039
715.608	0.0161549
715.686	0.0161587
715.764	0.0161481
715.842	0.0162575
715.920	0.0163416
715.998	0.0164632
716.076	0.0165472
716.155	0.0164874
716.233	0.0166120
716.311	0.0165833
716.389	0.0164900
716.467	0.0165461
716.545	0.0164310
716.623	0.0164234
716.701	0.0162832
716.780	0.0163551
716.858	0.0161428
716.936	0.0161534
717.014	0.0158784
717.092	0.0160011
717.170	0.0159473
717.248	0.0159266
717.326	0.0159011
717.405	0.0158306
717.483	0.0159475
717.561	0.0158402
717.639	0.0159277
717.717	0.0158161
717.795	0.0158286
717.873	0.0159379
717.951	0.0159930
718.030	0.0160482
718.108	0.0161684
718.186	0.0160145
718.264	0.0161240
718.342	0.0162211
718.420	0.0161924
718.498	0.0162211
718.576	0.0163441
718.655	0.0163672
718.733	0.0163516
718.811	0.0163185
718.889	0.0162611
718.967	0.0163895
719.045	0.0164008
719.123	0.0162837
719.201	0.0162052
719.280	0.0162642
719.358	0.0162633
719.436	0.0160594
719.514	0.0161501
719.592	0.0161833
719.670	0.0161568
719.748	0.0159860
719.826	0.0161270
719.905	0.0161086
719.983	0.0160363
720.061	0.0162319
720.139	0.0160854
720.217	0.0161382
720.295	0.0161642
720.373	0.0162710
720.451	0.0163136
720.530	0.0163230
720.608	0.0162967
720.686	0.0163107
720.764	0.0161596
720.842	0.0161158
720.920	0.0164452
720.998	0.0164565
721.076	0.0163358
721.155	0.0161938
721.233	0.0162776
721.311	0.0161977
721.389	0.0160499
721.467	0.0160076
721.545	0.0160375
721.623	0.0159617
721.701	0.0160299
721.780	0.0160155
721.858	0.0161927
721.936	0.0163402
722.014	0.0164393
722.092	0.0163224
722.170	0.0163090
722.248	0.0163879
722.326	0.0164281
722.405	0.0164828
722.483	0.0165548
722.561	0.0166100
722.639	0.0165584
722.717	0.0166689
722.795	0.0165767
722.873	0.0165134
722.951	0.0164373
723.030	0.0165270
723.108	0.0164558
723.186	0.0164719
723.264	0.0164087
723.342	0.0163520
723.420	0.0165390
723.498	0.0165903
723.576	0.0165369
723.655	0.0164676
723.733	0.0164549
723.811	0.0166361
723.889	0.0164655
723.967	0.0163455
724.045	0.0164422
724.123	0.0164790
724.201	0.0164327
724.280	0.0163293
724.358	0.0163939
724.436	0.0162798
724.514	0.0162076
724.592	0.0160862
724.670	0.0158853
724.748	0.0159475
724.826	0.0158360
724.905	0.0158231
724.983	0.0156407
725.061	0.0156874
725.139	0.0156658
725.217	0.0155876
725.295	0.0155531
725.373	0.0156861
725.451	0.0156683
725.530	0.0155946
725.608	0.0156345
725.686	0.0157101
725.764	0.0157069
725.842	0.0159789
725.920	0.0161479
725.998	0.0161123
726.076	0.0160143
726.155	0.0161861
726.233	0.0163470
726.311	0.0163152
726.389	0.0165141
726.467	0.0165704
726.545	0.0166120
726.623	0.0167547
726.701	0.0167218
726.780	0.0167245
726.858	0.0168333
726.936	0.0168655
727.014	0.0168795
727.092	0.0167516
727.170	0.0167609
727.248	0.0165999
727.326	0.0165443
727.405	0.0163233
727.483	0.0162567
727.561	0.0161645
727.639	0.0161582
727.717	0.0160054
727.795	0.0158151
727.873	0.0158746
727.951	0.0158185
728.030	0.0158946
728.108	0.0160323
728.186	0.0160918
728.264	0.0159346
728.342	0.0161342
728.420	0.0164144
728.498	0.0165163
728.576	0.0166628
728.655	0.0168232
728.733	0.0168011
728.811	0.0168798
728.889	0.0171020
728.967	0.0171498
729.045	0.0172301
729.123	0.0172610
729.201	0.0173645
729.280	0.0173053
729.358	0.0170479
729.436	0.0170569
729.514	0.0171235
729.592	0.0168904
729.670	0.0166032
729.748	0.0166387
729.826	0.0164867
729.905	0.0163887
729.983	0.0163360
730.061	0.0162202
730.139	0.0160587
730.217	0.0159933
730.295	0.0160377
730.373	0.0159879
730.451	0.0161507
730.530	0.0161994
730.608	0.0159719
730.686	0.0162502
730.764	0.0162857
730.842	0.0162780
730.920	0.0163077
730.998	0.0163790
731.076	0.0162184
731.155	0.0163194
731.233	0.0163834
731.311	0.0163876
731.389	0.0163754
731.467	0.0164811
731.545	0.0163121
731.623	0.0161359
731.701	0.0161465
731.780	0.0162400
731.858	0.0161349
731.936	0.0161420
732.014	0.0159130
732.092	0.0159635
732.170	0.0158961
732.248	0.0158810
732.326	0.0157693
732.405	0.0157483
732.483	0.0155848
732.561	0.0156983
732.639	0.0156206
732.717	0.0156232
732.795	0.0156925
732.873	0.0157106
732.951	0.0157719
733.030	0.0157470
733.108	0.0160198
733.186	0.0161749
733.264	0.0162855
733.342	0.0163102
733.420	0.0163849
733.498	0.0166290
733.576	0.0167754
733.655	0.0166817
733.733	0.0167267
733.811	0.0167991
733.889	0.0168366
733.967	0.0168310
734.045	0.0168073
734.123	0.0167323
734.201	0.0168896
734.280	0.0166193
734.358	0.0166206
734.436	0.0166271
734.514	0.0164638
734.592	0.0163416
734.670	0.0163095
734.748	0.0163248
734.826	0.0161010
734.905	0.0161498
734.983	0.0160668
735.061	0.0160158
735.139	0.0158890
735.217	0.0160008
735.295	0.0159609
735.373	0.0160106
735.451	0.0161533
735.530	0.0161393
735.608	0.0160810
735.686	0.0160308
735.764	0.0162905
735.842	0.0162522
735.920	0.0164148
735.998	0.0163758
736.076	0.0165091
736.155	0.0165543
736.233	0.0163806
736.311	0.0163728
736.389	0.0163830
736.467	0.0163215
736.545	0.0163315
736.623	0.0162732
736.701	0.0163218
736.780	0.0162467
736.858	0.0160839
736.936	0.0161804
737.014	0.0161339
737.092	0.0160793
737.170	0.0160661
737.248	0.0161452
737.326	0.0159887
737.405	0.0161336
737.483	0.0160784
737.561	0.0160294
737.639	0.0161941
737.717	0.0161508
737.795	0.0162334
737.873	0.0162702
737.951	0.0162738
738.030	0.0163441
738.108	0.0161851
738.186	0.0161502
738.264	0.0162300
738.342	0.0162701
738.420	0.0162048
738.498	0.0161398
738.576	0.0160390
738.655	0.0160892
738.733	0.0161264
738.811	0.0160493
738.889	0.0159875
738.967	0.0161556
739.045	0.0159113
739.123	0.0158348
739.201	0.0159252
739.280	0.0160491
739.358	0.0160008
739.436	0.0159273
739.514	0.0158994
739.592	0.0159930
739.670	0.0160435
739.748	0.0159972
739.826	0.0160599
739.905	0.0159555
739.983	0.0160639
740.061	0.0161093
740.139	0.0160907
740.217	0.0161140
740.295	0.0162325
740.373	0.0162398
740.451	0.0162997
740.530	0.0163367
740.608	0.0162482
740.686	0.0164387
740.764	0.0164611
740.842	0.0164026
740.920	0.0164962
740.998	0.0164666
741.076	0.0164082
741.155	0.0163577
741.233	0.0164983
741.311	0.0164572
741.389	0.0165234
741.467	0.0164254
741.545	0.0165014
741.623	0.0164018
741.701	0.0164089
741.780	0.0164086
741.858	0.0165178
741.936	0.0165783
742.014	0.0165339
742.092	0.0165023
742.170	0.0165502
742.248	0.0163911
742.326	0.0164443
742.405	0.0165042
742.483	0.0165368
742.561	0.0165125
742.639	0.0162953
742.717	0.0163393
742.795	0.0163200
742.873	0.0161815
742.951	0.0161939
743.030	0.0161262
743.108	0.0159724
743.186	0.0161855
743.264	0.0159322
743.342	0.0160110
743.420	0.0159035
743.498	0.0159968
743.576	0.0158099
743.655	0.0158531
743.733	0.0159564
743.811	0.0160313
743.889	0.0161261
743.967	0.0161210
744.045	0.0161356
744.123	0.0162370
744.201	0.0163454
744.280	0.0165186
744.358	0.0165401
744.436	0.0165344
744.514	0.0165755
744.592	0.0165071
744.670	0.0166399
744.748	0.0166185
744.826	0.0165581
744.905	0.0164393
744.983	0.0166219
745.061	0.0165313
745.139	0.0164017
745.217	0.0163987
745.295	0.0162566
745.373	0.0162634
745.451	0.0160863
745.530	0.0160075
745.608	0.0161039
745.686	0.0161314
745.764	0.0160089
745.842	0.0159161
745.920	0.0159882
745.998	0.0159066
746.076	0.0159770
746.155	0.0159178
746.233	0.0160159
746.311	0.0160898
746.389	0.0162369
746.467	0.0162167
746.545	0.0162828
746.623	0.0164130
746.701	0.0163486
746.780	0.0163058
746.858	0.0165584
746.936	0.0165554
747.014	0.0166112
747.092	0.0165414
747.170	0.0165098
747.248	0.0165685
747.326	0.0164673
747.405	0.0164462
747.483	0.0164124
747.561	0.0163708
747.639	0.0163142
747.717	0.0162568
747.795	0.0162500
747.873	0.0162544
747.951	0.0161913
748.030	0.0161459
748.108	0.0159985
748.186	0.0160683
748.264	0.0161636
748.342	0.0160824
748.420	0.0162445
748.498	0.0162185
748.576	0.0162183
748.655	0.0164343
748.733	0.0164528
748.811	0.0163760
748.889	0.0165668
748.967	0.0167420
749.045	0.0167243
749.123	0.0167140
749.201	0.0168353
749.280	0.0168356
749.358	0.0168048
749.436	0.0169685
749.514	0.0169208
749.592	0.0169168
749.670	0.0168732
749.748	0.0168431
749.826	0.0166214
749.905	0.0165672
749.983	0.0166296
750.061	0.0164745
750.139	0.0165475
750.217	0.0163072
750.295	0.0162162
750.373	0.0161151
750.451	0.0161446
750.530	0.0160276
750.608	0.0160394
750.686	0.0159537
750.764	0.0160620
750.842	0.0161105
750.920	0.0161671
750.998	0.0159970
751.076	0.0160858
751.155	0.0162835
751.233	0.0164527
751.311	0.0163718
751.389	0.0165797
751.467	0.0166078
751.545	0.0164450
751.623	0.0166954
751.701	0.0166540
751.780	0.0166557
751.858	0.0167023
751.936	0.0165905
752.014	0.0166795
752.092	0.0166572
752.170	0.0166051
752.248	0.0163736
752.326	0.0163246
752.405	0.0163808
752.483	0.0161755
752.561	0.0162505
752.639	0.0161975
752.717	0.0161272
752.795	0.0159790
752.873	0.0161027
752.951	0.0161452
753.030	0.0161895
753.108	0.0160507
753.186	0.0161839
753.264	0.0161789
753.342	0.0162967
753.420	0.0162122
753.498	0.0162173
753.576	0.0164755
753.655	0.0164531
753.733	0.0164755
753.811	0.0166523
753.889	0.0166215
753.967	0.0166339
754.045	0.0164880
754.123	0.0165855
754.201	0.0166203
754.280	0.0164363
754.358	0.0163904
754.436	0.0164226
754.514	0.0166142
754.592	0.0164754
754.670	0.0163223
754.748	0.0164222
754.826	0.0163779
754.905	0.0164827
754.983	0.0163515
755.061	0.0162913
755.139	0.0163027
755.217	0.0162740
755.295	0.0163002
755.373	0.0163168
755.451	0.0162447
755.530	0.0162507
755.608	0.0161734
755.686	0.0161234
755.764	0.0162662
755.842	0.0162534
755.920	0.0163802
755.998	0.0162149
756.076	0.0163332
756.155	0.0162970
756.233	0.0162961
756.311	0.0162417
756.389	0.0163782
756.467	0.0164530
756.545	0.0163289
756.623	0.0164040
756.701	0.0163950
756.780	0.0164079
756.858	0.0163282
756.936	0.0162409
757.014	0.0163048
757.092	0.0163575
757.170	0.0163612
757.248	0.0163413
757.326	0.0162868
757.405	0.0162441
757.483	0.0163088
757.561	0.0161358
757.639	0.0162376
757.717	0.0160374
757.795	0.0161077
757.873	0.0161663
757.951	0.0161100
758.030	0.0161178
758.108	0.0163417
758.186	0.0160655
758.264	0.0161585
758.342	0.0161689
758.420	0.0161834
758.498	0.0161298
758.576	0.0163430
758.655	0.0161341
758.733	0.0161583
758.811	0.0161620
758.889	0.0162045
758.967	0.0163732
759.045	0.0162424
759.123	0.0163058
759.201	0.0162826
759.280	0.0162152
759.358	0.0164070
759.436	0.0162981
759.514	0.0163512
759.592	0.0164753
759.670	0.0162997
759.748	0.0162941
759.826	0.0163951
759.905	0.0162650
759.983	0.0163287
760.061	0.0163235
760.139	0.0161656
760.217	0.0163411
760.295	0.0162972
760.373	0.0162581
760.451	0.0163608
760.530	0.0162106
760.608	0.0161488
760.686	0.0163134
760.764	0.0161517
760.842	0.0162732
760.920	0.0162414
760.998	0.0159930
761.076	0.0160909
761.155	0.0162568
761.233	0.0163036
761.311	0.0161226
761.389	0.0161056
761.467	0.0161577
761.545	0.0162079
761.623	0.0160891
761.701	0.0161069
761.780	0.0160542
761.858	0.0160657
761.936	0.0160216
762.014	0.0163252
762.092	0.0162476
762.170	0.0162238
762.248	0.0162379
762.326	0.0161716
762.405	0.0161411
762.483	0.0162741
762.561	0.0163217
762.639	0.0162314
762.717	0.0161870
762.795	0.0160586
762.873	0.0161315
762.951	0.0161708
763.030	0.0161520
763.108	0.0160500
763.186	0.0159332
763.264	0.0161282
763.342	0.0161467
763.420	0.0162653
763.498	0.0161317
763.576	0.0160989
763.655	0.0162454
763.733	0.0161925
763.811	0.0161279
763.889	0.0162071
763.967	0.0164036
764.045	0.0162039
764.123	0.0161673
764.201	0.0163242
764.280	0.0163458
764.358	0.0163028
764.436	0.0161969
764.514	0.0162518
764.592	0.0163544
764.670	0.0162366
764.748	0.0162767
764.826	0.0163625
764.905	0.0161768
764.983	0.0162305
765.061	0.0162616
765.139	0.0162762
765.217	0.0163052
765.295	0.0163461
765.373	0.0163183
765.451	0.0163830
765.530	0.0164586
765.608	0.0164991
765.686	0.0165337
765.764	0.0166080
765.842	0.0165239
765.920	0.0164949
765.998	0.0164389
766.076	0.0165024
766.155	0.0167247
766.233	0.0164602
766.311	0.0163206
766.389	0.0164366
766.467	0.0163747
766.545	0.0163519
766.623	0.0163474
766.701	0.0163531
766.780	0.0162533
766.858	0.0162282
766.936	0.0161813
767.014	0.0161969
767.092	0.0162027
767.170	0.0162253
767.248	0.0161066
767.326	0.0162910
767.405	0.0161499
767.483	0.0162057
767.561	0.0161059
767.639	0.0162032
767.717	0.0162634
767.795	0.0163007
767.873	0.0161864
767.951	0.0161970
768.030	0.0162349
768.108	0.0162343
768.186	0.0161395
768.264	0.0161845
768.342	0.0160044
768.420	0.0160902
768.498	0.0160085
768.576	0.0160732
768.655	0.0160677
768.733	0.0161009
768.811	0.0161216
768.889	0.0161828
768.967	0.0161339
769.045	0.0163400
769.123	0.0162943
769.201	0.0163312
769.280	0.0163866
769.358	0.0163078
769.436	0.0164503
769.514	0.0164185
769.592	0.0164471
769.670	0.0165931
769.748	0.0166075
769.826	0.0164584
769.905	0.0165072
769.983	0.0165962
770.061	0.0166107
770.139	0.0164606
770.217	0.0163860
770.295	0.0164194
770.373	0.0163736
770.451	0.0165462
770.530	0.0162625
770.608	0.0163931
770.686	0.0162968
770.764	0.0163517
770.842	0.0162811
770.920	0.0163039
770.998	0.0163482
771.076	0.0163007
771.155	0.0162815
771.233	0.0164137
771.311	0.0162966
771.389	0.0164709
771.467	0.0164207
771.545	0.0165371
771.623	0.0164765
771.701	0.0165732
771.780	0.0165318
771.858	0.0163644
771.936	0.0163904
772.014	0.0164030
772.092	0.0163479
772.170	0.0163282
772.248	0.0163331
772.326	0.0162354
772.405	0.0162866
772.483	0.0161028
772.561	0.0161353
772.639	0.0161518
772.717	0.0162920
772.795	0.0162298
772.873	0.0162959
772.951	0.0163521
773.030	0.0163095
773.108	0.0162212
773.186	0.0163923
773.264	0.0162858
773.342	0.0163642
773.420	0.0163323
773.498	0.0164754
773.576	0.0165042
773.655	0.0163213
773.733	0.0164153
773.811	0.0165325
773.889	0.0165453
773.967	0.0164029
774.045	0.0165011
774.123	0.0164523
774.201	0.0164191
774.280	0.0162477
774.358	0.0162486
774.436	0.0163143
774.514	0.0163934
774.592	0.0162598
774.670	0.0163764
774.748	0.0162453
774.826	0.0161120
774.905	0.0163232
774.983	0.0161942
775.061	0.0162456
775.139	0.0162518
775.217	0.0164552
775.295	0.0164098
775.373	0.0163531
775.451	0.0164249
775.530	0.0165242
775.608	0.0164040
775.686	0.0165145
775.764	0.0164044
775.842	0.0165396
775.920	0.0165507
775.998	0.0164168
776.076	0.0162367
776.155	0.0162181
776.233	0.0162990
776.311	0.0163028
776.389	0.0163280
776.467	0.0160600
776.545	0.0161716
776.623	0.0161255
776.701	0.0160635
776.780	0.0161895
776.858	0.0160690
776.936	0.0161199
777.014	0.0161266
777.092	0.0162162
777.170	0.0162364
777.248	0.0164063
777.326	0.0164094
777.405	0.0164528
777.483	0.0164293
777.561	0.0164008
777.639	0.0164986
777.717	0.0164916
777.795	0.0165127
777.873	0.0164812
777.951	0.0163261
778.030	0.0163147
778.108	0.0162487
778.186	0.0164426
778.264	0.0164978
778.342	0.0162074
778.420	0.0162250
778.498	0.0161641
778.576	0.0160537
778.655	0.0163676
778.733	0.0162346
778.811	0.0161050
778.889	0.0160614
778.967	0.0162382
779.045	0.0162230
779.123	0.0161333
779.201	0.0163055
779.280	0.0163488
779.358	0.0162796
779.436	0.0162543
779.514	0.0162987
779.592	0.0162241
779.670	0.0163514
779.748	0.0164552
779.826	0.0163529
779.905	0.0163507
779.983	0.0163605
780.061	0.0162162
780.139	0.0163464
780.217	0.0163059
780.295	0.0160886
780.373	0.0160378
780.451	0.0161314
780.530	0.0160440
780.608	0.0160393
780.686	0.0160468
780.764	0.0161640
780.842	0.0160972
780.920	0.0160297
780.998	0.0160522
781.076	0.0160540
781.155	0.0161555
781.233	0.0163641
781.311	0.0162698
781.389	0.0160345
781.467	0.0162749
781.545	0.0162271
781.623	0.0163606
781.701	0.0163319
781.780	0.0162310
781.858	0.0162678
781.936	0.0161701
782.014	0.0161108
782.092	0.0161908
782.170	0.0162724
782.248	0.0160635
782.326	0.0161584
782.405	0.0161679
782.483	0.0160889
782.561	0.0161472
782.639	0.0161647
782.717	0.0163602
782.795	0.0163068
782.873	0.0161531
782.951	0.0160934
783.030	0.0162213
783.108	0.0161949
783.186	0.0161575
783.264	0.0163072
783.342	0.0164007
783.420	0.0163668
783.498	0.0164207
783.576	0.0163507
783.655	0.0165866
783.733	0.0164717
783.811	0.0163348
783.889	0.0164330
783.967	0.0164116
784.045	0.0162578
784.123	0.0161504
784.201	0.0161443
784.280	0.0161286
784.358	0.0161126
784.436	0.0160964
784.514	0.0160239
784.592	0.0159606
784.670	0.0161006
784.748	0.0159364
784.826	0.0159430
784.905	0.0158940
784.983	0.0158421
785.061	0.0158768
785.139	0.0158815
785.217	0.0159760
785.295	0.0158632
785.373	0.0158650
785.451	0.0159882
785.530	0.0160155
785.608	0.0160157
785.686	0.0160465
785.764	0.0160500
785.842	0.0160869
785.920	0.0159312
785.998	0.0158768
786.076	0.0160876
786.155	0.0161729
786.233	0.0160243
786.311	0.0161713
786.389	0.0162186
786.467	0.0161906
786.545	0.0162721
786.623	0.0161510
786.701	0.0161664
786.780	0.0163083
786.858	0.0162640
786.936	0.0162847
787.014	0.0163321
787.092	0.0163020
787.170	0.0163700
787.248	0.0162199
787.326	0.0163340
787.405	0.0163386
787.483	0.0163082
787.561	0.0163501
787.639	0.0161417
787.717	0.0163100
787.795	0.0162199
787.873	0.0162855
787.951	0.0162715
788.030	0.0162688
788.108	0.0162039
788.186	0.0162637
788.264	0.0162769
788.342	0.0162209
788.420	0.0162119
788.498	0.0162275
788.576	0.0162448
788.655	0.0162611
788.733	0.0161552
788.811	0.0162872
788.889	0.0162892
788.967	0.0163088
789.045	0.0163540
789.123	0.0163767
789.201	0.0163213
789.280	0.0164394
789.358	0.0165069
789.436	0.0165097
789.514	0.0165063
789.592	0.0164552
789.670	0.0165055
789.748	0.0164962
789.826	0.0165678
789.905	0.0165345
789.983	0.0165417
790.061	0.0165259
790.139	0.0164146
790.217	0.0163982
790.295	0.0162977
790.373	0.0165122
790.451	0.0164352
790.530	0.0162025
790.608	0.0163201
790.686	0.0163152
790.764	0.0163336
790.842	0.0161769
790.920	0.0163479
790.998	0.0162354
791.076	0.0162154
791.155	0.0163855
791.233	0.0164668
791.311	0.0162698
791.389	0.0162481
791.467	0.0162263
791.545	0.0162727
791.623	0.0163395
791.701	0.0163213
791.780	0.0162055
791.858	0.0162241
791.936	0.0161584
792.014	0.0161458
792.092	0.0163005
792.170	0.0162499
792.248	0.0161970
792.326	0.0161356
792.405	0.0161395
792.483	0.0159989
792.561	0.0159866
792.639	0.0160688
792.717	0.0160678
792.795	0.0161150
792.873	0.0161526
792.951	0.0161232
793.030	0.0159750
793.108	0.0161279
793.186	0.0162765
793.264	0.0162727
793.342	0.0163954
793.420	0.0163763
793.498	0.0162023
793.576	0.0164114
793.655	0.0164204
793.733	0.0163234
793.811	0.0164179
793.889	0.0164310
793.967	0.0162494
794.045	0.0165002
794.123	0.0162666
794.201	0.0162692
794.280	0.0163332
794.358	0.0164021
794.436	0.0164303
794.514	0.0163880
794.592	0.0163341
794.670	0.0164288
794.748	0.0163909
794.826	0.0164571
794.905	0.0164138
794.983	0.0163811
795.061	0.0164526
795.139	0.0163813
795.217	0.0164137
795.295	0.0165983
795.373	0.0164232
795.451	0.0165359
795.530	0.0166265
795.608	0.0166282
795.686	0.0165361
795.764	0.0165155
795.842	0.0165683
795.920	0.0165015
795.998	0.0166087
796.076	0.0164396
796.155	0.0165598
796.233	0.0164983
796.311	0.0163403
796.389	0.0163399
796.467	0.0163666
796.545	0.0164127
796.623	0.0162144
796.701	0.0162170
796.780	0.0162602
796.858	0.0161134
796.936	0.0162331
797.014	0.0162119
797.092	0.0162223
797.170	0.0162722
797.248	0.0162408
797.326	0.0161689
797.405	0.0163510
797.483	0.0163559
797.561	0.0163598
797.639	0.0162388
797.717	0.0162509
797.795	0.0163935
797.873	0.0163524
797.951	0.0163150
798.030	0.0163937
798.108	0.0163440
798.186	0.0165417
798.264	0.0163610
798.342	0.0163960
798.420	0.0163927
798.498	0.0165076
798.576	0.0164684
798.655	0.0165545
798.733	0.0164700
798.811	0.0165687
798.889	0.0164456
798.967	0.0166601
799.045	0.0165181
799.123	0.0166101
799.201	0.0165669
799.280	0.0166101
799.358	0.0165456
799.436	0.0164864
799.514	0.0164239
799.592	0.0164468
799.670	0.0164684
799.748	0.0162827
799.826	0.0163898
799.905	0.0162630
799.983	0.0161914
800.061	0.0163472
800.139	0.0162445
800.217	0.0161745
800.295	0.0162080
800.373	0.0162381
800.451	0.0161332
800.530	0.0160518
800.608	0.0160299
800.686	0.0161535
800.764	0.0161871
800.842	0.0161176
800.920	0.0161150
800.998	0.0161140
801.076	0.0159763
801.155	0.0158190
801.233	0.0160248
801.311	0.0161436
801.389	0.0158317
801.467	0.0160149
801.545	0.0159991
801.623	0.0160973
801.701	0.0158481
801.780	0.0159835
801.858	0.0162099
801.936	0.0160540
802.014	0.0159002
802.092	0.0159054
802.170	0.0161868
802.248	0.0160944
802.326	0.0161649
802.405	0.0161506
802.483	0.0161945
802.561	0.0161789
802.639	0.0162241
802.717	0.0162597
802.795	0.0163155
802.873	0.0162061
802.951	0.0162415
803.030	0.0161655
803.108	0.0163569
803.186	0.0162914
803.264	0.0162875
803.342	0.0161968
803.420	0.0163267
803.498	0.0162713
803.576	0.0161517
803.655	0.0162069
803.733	0.0161933
803.811	0.0161642
803.889	0.0161997
803.967	0.0162369
804.045	0.0163159
804.123	0.0162037
804.201	0.0162271
804.280	0.0163505
804.358	0.0161902
804.436	0.0163216
804.514	0.0162276
804.592	0.0162194
804.670	0.0164072
804.748	0.0161528
804.826	0.0161642
804.905	0.0162967
804.983	0.0162145
805.061	0.0161314
805.139	0.0160895
805.217	0.0161197
805.295	0.0161772
805.373	0.0160646
805.451	0.0159852
805.530	0.0160967
805.608	0.0161408
805.686	0.0159646
805.764	0.0160555
805.842	0.0160341
805.920	0.0160341
805.998	0.0160197
806.076	0.0160375
806.155	0.0160710
806.233	0.0161163
806.311	0.0161718
806.389	0.0162669
806.467	0.0161021
806.545	0.0162253
806.623	0.0161444
806.701	0.0162058
806.780	0.0162050
806.858	0.0163573
806.936	0.0161997
807.014	0.0161617
807.092	0.0163240
807.170	0.0161988
807.248	0.0162957
807.326	0.0161472
807.405	0.0161423
807.483	0.0160490
807.561	0.0160886
807.639	0.0160777
807.717	0.0161956
807.795	0.0160859
807.873	0.0161132
807.951	0.0161214
808.030	0.0161706
808.108	0.0160366
808.186	0.0162063
808.264	0.0162331
808.342	0.0162514
808.420	0.0163622
808.498	0.0163486
808.576	0.0163620
808.655	0.0163434
808.733	0.0164280
808.811	0.0164079
808.889	0.0163212
808.967	0.0164111
809.045	0.0164890
809.123	0.0165460
809.201	0.0165857
809.280	0.0164226
809.358	0.0163470
809.436	0.0165305
809.514	0.0163073
809.592	0.0163599
809.670	0.0162180
809.748	0.0164011
809.826	0.0162172
809.905	0.0162741
809.983	0.0163292
810.061	0.0163126
810.139	0.0162862
810.217	0.0163701
810.295	0.0162807
810.373	0.0163148
810.451	0.0164062
810.530	0.0164470
810.608	0.0161739
810.686	0.0162080
810.764	0.0162952
810.842	0.0163259
810.920	0.0162524
810.998	0.0162231
811.076	0.0163251
811.155	0.0163569
811.233	0.0162234
811.311	0.0161697
811.389	0.0161414
811.467	0.0161817
811.545	0.0161035
811.623	0.0161877
811.701	0.0161761
811.780	0.0161887
811.858	0.0161758
811.936	0.0160787
812.014	0.0161340
812.092	0.0162908
812.170	0.0163157
812.248	0.0162364
812.326	0.0162759
812.405	0.0161513
812.483	0.0162169
812.561	0.0163676
812.639	0.0163679
812.717	0.0163454
812.795	0.0162048
812.873	0.0162079
812.951	0.0163400
813.030	0.0163139
813.108	0.0163401
813.186	0.0162016
813.264	0.0161535
813.342	0.0162881
813.420	0.0162506
813.498	0.0161675
813.576	0.0162692
813.655	0.0161642
813.733	0.0160672
813.811	0.0162544
813.889	0.0162102
813.967	0.0161019
814.045	0.0161616
814.123	0.0162286
814.201	0.0161989
814.280	0.0162367
814.358	0.0163139
814.436	0.0164381
814.514	0.0162984
814.592	0.0165319
814.670	0.0165199
814.748	0.0164603
814.826	0.0164063
814.905	0.0164445
814.983	0.0165942
815.061	0.0163612
815.139	0.0164759
815.217	0.0164014
815.295	0.0164644
815.373	0.0162846
815.451	0.0163058
815.530	0.0164053
815.608	0.0163452
815.686	0.0164606
815.764	0.0163142
815.842	0.0163274
815.920	0.0162656
815.998	0.0161517
816.076	0.0160484
816.155	0.0161599
816.233	0.0163735
816.311	0.0162452
816.389	0.0161912
816.467	0.0161458
816.545	0.0161836
816.623	0.0162936
816.701	0.0163376
816.780	0.0162103
816.858	0.0163339
816.936	0.0164125
817.014	0.0163018
817.092	0.0164500
817.170	0.0163370
817.248	0.0162607
817.326	0.0161201
817.405	0.0163014
817.483	0.0162320
817.561	0.0161928
817.639	0.0160825
817.717	0.0161309
817.795	0.0161684
817.873	0.0160386
817.951	0.0160855
818.030	0.0161115
818.108	0.0160680
818.186	0.0159766
818.264	0.0158527
818.342	0.0161887
818.420	0.0161559
818.498	0.0162935
818.576	0.0162996
818.655	0.0161334
818.733	0.0163803
818.811	0.0164277
818.889	0.0164022
818.967	0.0165491
819.045	0.0163025
819.123	0.0164954
819.201	0.0165499
819.280	0.0165228
819.358	0.0166005
819.436	0.0165686
819.514	0.0164427
819.592	0.0165649
819.670	0.0164663
819.748	0.0164301
819.826	0.0164957
819.905	0.0164804
819.983	0.0165685
820.061	0.0164886
820.139	0.0164442
820.217	0.0164151
820.295	0.0165140
820.373	0.0166156
820.451	0.0165916
820.530	0.0165725
820.608	0.0165344
820.686	0.0164109
820.764	0.0164335
820.842	0.0164130
820.920	0.0163541
820.998	0.0164456
821.076	0.0161376
821.155	0.0163561
821.233	0.0163232
821.311	0.0161356
821.389	0.0160789
821.467	0.0161497
821.545	0.0161935
821.623	0.0161333
821.701	0.0161585
821.780	0.0160212
821.858	0.0162653
821.936	0.0160909
822.014	0.0161734
822.092	0.0161380
822.170	0.0162148
822.248	0.0161448
822.326	0.0160906
822.405	0.0162193
822.483	0.0161697
822.561	0.0164188
822.639	0.0164462
822.717	0.0163375
822.795	0.0163526
822.873	0.0164050
822.951	0.0165187
823.030	0.0164369
823.108	0.0165428
823.186	0.0165390
823.264	0.0164993
823.342	0.0164761
823.420	0.0165926
823.498	0.0165937
823.576	0.0165128
823.655	0.0165660
823.733	0.0165887
823.811	0.0164137
823.889	0.0165216
823.967	0.0164114
824.045	0.0164497
824.123	0.0163857
824.201	0.0163881
824.280	0.0163184
824.358	0.0163937
824.436	0.0164719
824.514	0.0163371
824.592	0.0164069
824.670	0.0164024
824.748	0.0164400
824.826	0.0163783
824.905	0.0165250
824.983	0.0164470
825.061	0.0163954
825.139	0.0164227
825.217	0.0164054
825.295	0.0164476
825.373	0.0164624
825.451	0.0164993
825.530	0.0166019
825.608	0.0164321
825.686	0.0163490
825.764	0.0163297
825.842	0.0163179
825.920	0.0164529
825.998	0.0163558
826.076	0.0163367
826.155	0.0163410
826.233	0.0164909
826.311	0.0161012
826.389	0.0161399
826.467	0.0163169
826.545	0.0162570
826.623	0.0162902
826.701	0.0163431
826.780	0.0164002
826.858	0.0161891
826.936	0.0163126
827.014	0.0162376
827.092	0.0160999
827.170	0.0162920
827.248	0.0162254
827.326	0.0163928
827.405	0.0163026
827.483	0.0162302
827.561	0.0162003
827.639	0.0162791
827.717	0.0163086
827.795	0.0161939
827.873	0.0161881
827.951	0.0162628
828.030	0.0162772
828.108	0.0164351
828.186	0.0163451
828.264	0.0163083
828.342	0.0162251
828.420	0.0163201
828.498	0.0164624
828.576	0.0162848
828.655	0.0162505
828.733	0.0164193
828.811	0.0163031
828.889	0.0162302
828.967	0.0163855
829.045	0.0162142
829.123	0.0162315
829.201	0.0163662
829.280	0.0164888
829.358	0.0162540
829.436	0.0162064
829.514	0.0164088
829.592	0.0162293
829.670	0.0163309
829.748	0.0162772
829.826	0.0163858
829.905	0.0163583
829.983	0.0164545
830.061	0.0164813
830.139	0.0162792
830.217	0.0162747
830.295	0.0165421
830.373	0.0164765
830.451	0.0164407
830.530	0.0164903
830.608	0.0164375
830.686	0.0165494
830.764	0.0165465
830.842	0.0166383
830.920	0.0165952
830.998	0.0164308
831.076	0.0164770
831.155	0.0165978
831.233	0.0163966
831.311	0.0165108
831.389	0.0165121
831.467	0.0164433
831.545	0.0164193
831.623	0.0164023
831.701	0.0163715
831.780	0.0163503
831.858	0.0162161
831.936	0.0164140
832.014	0.0163300
832.092	0.0163979
832.170	0.0163597
832.248	0.0164026
832.326	0.0162817
832.405	0.0163188
832.483	0.0162321
832.561	0.0163178
832.639	0.0164410
832.717	0.0164853
832.795	0.0162971
832.873	0.0162439
832.951	0.0163317
833.030	0.0163026
833.108	0.0161781
833.186	0.0161890
833.264	0.0161713
833.342	0.0162552
833.420	0.0163039
833.498	0.0161573
833.576	0.0162045
833.655	0.0161203
833.733	0.0161359
833.811	0.0161358
833.889	0.0161672
833.967	0.0160448
834.045	0.0161172
834.123	0.0161604
834.201	0.0161692
834.280	0.0161950
834.358	0.0162292
834.436	0.0162617
834.514	0.0162537
834.592	0.0162239
834.670	0.0162403
834.748	0.0161140
834.826	0.0162273
834.905	0.0163395
834.983	0.0163220
835.061	0.0162875
835.139	0.0162865
835.217	0.0162394
835.295	0.0163327
835.373	0.0162984
835.451	0.0162342
835.530	0.0162288
835.608	0.0163702
835.686	0.0161983
835.764	0.0163012
835.842	0.0163283
835.920	0.0162789
835.998	0.0161623
836.076	0.0160976
836.155	0.0162563
836.233	0.0161898
836.311	0.0161402
836.389	0.0162625
836.467	0.0162703
836.545	0.0160983
836.623	0.0162019
836.701	0.0161785
836.780	0.0160535
836.858	0.0162331
836.936	0.0162226
837.014	0.0162686
837.092	0.0162022
837.170	0.0163037
837.248	0.0161584
837.326	0.0161916
837.405	0.0162655
837.483	0.0162969
837.561	0.0162023
837.639	0.0162110
837.717	0.0162154
837.795	0.0162495
837.873	0.0161021
837.951	0.0162969
838.030	0.0161569
838.108	0.0161345
838.186	0.0163100
838.264	0.0163032
838.342	0.0163409
838.420	0.0162650
838.498	0.0161385
838.576	0.0162667
838.655	0.0162817
838.733	0.0161774
838.811	0.0161752
838.889	0.0163708
838.967	0.0162931
839.045	0.0162317
839.123	0.0162934
839.201	0.0161815
839.280	0.0162063
839.358	0.0162267
839.436	0.0161352
839.514	0.0162683
839.592	0.0163255
839.670	0.0161906
839.748	0.0160944
839.826	0.0161549
839.905	0.0163062
839.983	0.0161575
840.061	0.0161273
840.139	0.0162330
840.217	0.0163791
840.295	0.0161929
840.373	0.0162328
840.451	0.0161488
840.530	0.0162306
840.608	0.0161452
840.686	0.0162823
840.764	0.0162570
840.842	0.0162725
840.920	0.0162582
840.998	0.0162359
841.076	0.0163833
841.155	0.0163552
841.233	0.0163095
841.311	0.0161989
841.389	0.0163284
841.467	0.0163534
841.545	0.0160780
841.623	0.0161629
841.701	0.0163364
841.780	0.0160928
841.858	0.0161257
841.936	0.0160917
842.014	0.0160872
842.092	0.0162098
842.170	0.0163538
842.248	0.0161182
842.326	0.0160271
842.405	0.0161989
842.483	0.0162634
842.561	0.0161874
842.639	0.0161658
842.717	0.0162306
842.795	0.0162540
842.873	0.0163138
842.951	0.0162037
843.030	0.0162447
843.108	0.0163194
843.186	0.0163132
843.264	0.0162626
843.342	0.0161737
843.420	0.0163147
843.498	0.0162568
843.576	0.0163486
843.655	0.0162383
843.733	0.0163287
843.811	0.0163925
843.889	0.0163573
843.967	0.0163488
844.045	0.0164008
844.123	0.0164552
844.201	0.0163725
844.280	0.0162821
844.358	0.0162955
844.436	0.0164148
844.514	0.0162601
844.592	0.0163934
844.670	0.0164206
844.748	0.0163690
844.826	0.0164809
844.905	0.0165018
844.983	0.0164392
845.061	0.0164864
845.139	0.0163142
845.217	0.0165006
845.295	0.0163567
845.373	0.0163321
845.451	0.0164510
845.530	0.0164857
845.608	0.0165516
845.686	0.0165288
845.764	0.0164238
845.842	0.0164801
845.920	0.0165155
845.998	0.0164928
846.076	0.0165157
846.155	0.0164981
846.233	0.0164748
846.311	0.0164836
846.389	0.0164568
846.467	0.0165540
846.545	0.0164629
846.623	0.0164281
846.701	0.0164570
846.780	0.0165276
846.858	0.0164347
846.936	0.0164014
847.014	0.0163091
847.092	0.0163365
847.170	0.0163197
847.248	0.0163844
847.326	0.0162798
847.405	0.0162105
847.483	0.0161903
847.561	0.0162006
847.639	0.0162688
847.717	0.0161755
847.795	0.0161047
847.873	0.0162099
847.951	0.0162150
848.030	0.0163049
848.108	0.0162903
848.186	0.0161849
848.264	0.0161225
848.342	0.0163489
848.420	0.0162248
848.498	0.0165279
848.576	0.0164173
848.655	0.0164809
848.733	0.0163883
848.811	0.0163937
848.889	0.0163181
848.967	0.0164388
849.045	0.0163573
849.123	0.0165253
849.201	0.0164490
849.280	0.0164943
849.358	0.0166714
849.436	0.0164391
849.514	0.0164421
849.592	0.0165057
849.670	0.0163429
849.748	0.0164534
849.826	0.0165366
849.905	0.0164175
849.983	0.0164212
850.061	0.0165374
850.139	0.0165961
850.217	0.0164229
850.295	0.0164422
850.373	0.0164304
850.451	0.0163695
850.530	0.0165507
850.608	0.0163670
850.686	0.0164724
850.764	0.0163224
850.842	0.0163505
850.920	0.0162764
850.998	0.0164223
851.076	0.0164657
851.155	0.0162743
851.233	0.0162837
851.311	0.0164490
851.389	0.0163157
851.467	0.0163497
851.545	0.0163478
851.623	0.0164729
851.701	0.0162893
851.780	0.0163013
851.858	0.0163412
851.936	0.0163646
852.014	0.0163439
852.092	0.0164738
852.170	0.0164297
852.248	0.0164307
852.326	0.0163007
852.405	0.0164188
852.483	0.0165190
852.561	0.0164613
852.639	0.0165057
852.717	0.0165564
852.795	0.0164566
852.873	0.0164757
852.951	0.0165351
853.030	0.0164926
853.108	0.0165952
853.186	0.0165993
853.264	0.0164553
853.342	0.0163309
853.420	0.0165363
853.498	0.0165371
853.576	0.0164288
853.655	0.0163499
853.733	0.0163797
853.811	0.0165105
853.889	0.0163871
853.967	0.0163560
854.045	0.0163713
854.123	0.0163751
854.201	0.0164328
854.280	0.0162683
854.358	0.0164150
854.436	0.0162708
854.514	0.0163535
854.592	0.0163493
854.670	0.0162637
854.748	0.0162881
854.826	0.0162712
854.905	0.0162479
854.983	0.0162567
855.061	0.0162753
855.139	0.0161995
855.217	0.0162142
855.295	0.0162972
855.373	0.0162915
855.451	0.0161134
855.530	0.0162910
855.608	0.0161118
855.686	0.0162193
855.764	0.0161619
855.842	0.0160661
855.920	0.0163878
855.998	0.0162193
856.076	0.0163255
856.155	0.0161108
856.233	0.0161768
856.311	0.0162183
856.389	0.0162387
856.467	0.0162347
856.545	0.0163459
856.623	0.0163730
856.701	0.0163440
856.780	0.0163448
856.858	0.0163190
856.936	0.0163763
857.014	0.0163458
857.092	0.0163253
857.170	0.0163986
857.248	0.0164704
857.326	0.0163711
857.405	0.0164960
857.483	0.0164645
857.561	0.0163288
857.639	0.0163960
857.717	0.0163786
857.795	0.0163219
857.873	0.0162857
857.951	0.0163705
858.030	0.0163750
858.108	0.0164194
858.186	0.0162811
858.264	0.0162659
858.342	0.0163647
858.420	0.0163664
858.498	0.0163574
858.576	0.0163519
858.655	0.0165018
858.733	0.0163712
858.811	0.0164336
858.889	0.0163860
858.967	0.0162741
859.045	0.0163466
859.123	0.0162886
859.201	0.0163374
859.280	0.0163050
859.358	0.0162663
859.436	0.0162914
859.514	0.0162751
859.592	0.0161810
859.670	0.0161240
859.748	0.0161717
859.826	0.0162083
859.905	0.0162373
859.983	0.0162289
860.061	0.0162319
860.139	0.0162150
860.217	0.0161855
860.295	0.0162331
860.373	0.0162628
860.451	0.0161497
860.530	0.0161980
860.608	0.0162666
860.686	0.0160981
860.764	0.0162328
860.842	0.0161379
860.920	0.0162495
860.998	0.0160975
861.076	0.0161593
861.155	0.0162159
861.233	0.0161308
861.311	0.0162436
861.389	0.0162825
861.467	0.0161448
861.545	0.0162637
861.623	0.0162006
861.701	0.0160357
861.780	0.0159891
861.858	0.0160400
861.936	0.0161053
862.014	0.0160103
862.092	0.0161111
862.170	0.0160314
862.248	0.0160997
862.326	0.0160416
862.405	0.0161682
862.483	0.0160979
862.561	0.0159669
862.639	0.0160208
862.717	0.0159888
862.795	0.0160238
862.873	0.0160709
862.951	0.0159769
863.030	0.0158654
863.108	0.0159644
863.186	0.0158879
863.264	0.0159088
863.342	0.0162305
863.420	0.0159808
863.498	0.0159663
863.576	0.0159917
863.655	0.0160844
863.733	0.0161222
863.811	0.0160966
863.889	0.0161312
863.967	0.0161411
864.045	0.0160290
864.123	0.0160927
864.201	0.0160523
864.280	0.0162627
864.358	0.0162095
864.436	0.0163134
864.514	0.0162305
864.592	0.0161300
864.670	0.0162286
864.748	0.0161852
864.826	0.0161840
864.905	0.0162356
864.983	0.0161341
865.061	0.0163004
865.139	0.0161682
865.217	0.0160533
865.295	0.0160239
865.373	0.0159212
865.451	0.0159659
865.530	0.0162357
865.608	0.0161434
865.686	0.0160242
865.764	0.0162232
865.842	0.0162699
865.920	0.0161358
865.998	0.0161821
866.076	0.0163926
866.155	0.0163111
866.233	0.0163262
866.311	0.0163464
866.389	0.0163064
866.467	0.0163618
866.545	0.0164429
866.623	0.0163235
866.701	0.0163277
866.780	0.0164024
866.858	0.0162505
866.936	0.0163209
867.014	0.0164043
867.092	0.0163171
867.170	0.0163003
867.248	0.0164025
867.326	0.0162492
867.405	0.0162091
867.483	0.0163003
867.561	0.0162059
867.639	0.0163355
867.717	0.0162771
867.795	0.0161980
867.873	0.0162398
867.951	0.0161833
868.030	0.0162315
868.108	0.0164566
868.186	0.0162328
868.264	0.0163172
868.342	0.0163120
868.420	0.0162337
868.498	0.0163467
868.576	0.0163901
868.655	0.0163473
868.733	0.0163161
868.811	0.0162782
868.889	0.0163690
868.967	0.0162206
869.045	0.0162946
869.123	0.0163927
869.201	0.0163301
869.280	0.0161735
869.358	0.0163718
869.436	0.0163206
869.514	0.0162267
869.592	0.0163567
869.670	0.0162381
869.748	0.0162899
869.826	0.0162991
869.905	0.0163168
869.983	0.0162129
870.061	0.0161531
870.139	0.0163810
870.217	0.0163810
870.295	0.0163507
870.373	0.0162120
870.451	0.0163331
870.530	0.0162383
870.608	0.0162151
870.686	0.0162602
870.764	0.0163702
870.842	0.0163510
870.920	0.0162843
870.998	0.0164335
871.076	0.0162826
871.155	0.0161496
871.233	0.0162897
871.311	0.0161861
871.389	0.0162571
871.467	0.0161713
871.545	0.0161880
871.623	0.0161091
871.701	0.0160833
871.780	0.0162552
871.858	0.0162848
871.936	0.0162032
872.014	0.0162856
872.092	0.0162155
872.170	0.0161687
872.248	0.0161815
872.326	0.0162390
872.405	0.0163264
872.483	0.0164032
872.561	0.0164112
872.639	0.0163028
872.717	0.0163543
872.795	0.0163213
872.873	0.0164438
872.951	0.0164603
873.030	0.0163995
873.108	0.0165348
873.186	0.0165168
873.264	0.0164256
873.342	0.0165200
873.420	0.0164044
873.498	0.0166103
873.576	0.0165852
873.655	0.0165114
873.733	0.0165760
873.811	0.0166090
873.889	0.0166161
873.967	0.0164916
874.045	0.0163323
874.123	0.0165930
874.201	0.0165691
874.280	0.0166190
874.358	0.0166737
874.436	0.0166090
874.514	0.0164329
874.592	0.0164057
874.670	0.0164147
874.748	0.0163351
874.826	0.0164046
874.905	0.0164513
874.983	0.0164936
875.061	0.0162961
875.139	0.0163814
875.217	0.0163245
875.295	0.0164027
875.373	0.0162889
875.451	0.0163557
875.530	0.0164535
875.608	0.0165099
875.686	0.0164064
875.764	0.0164481
875.842	0.0163843
875.920	0.0163892
875.998	0.0162328
876.076	0.0163369
876.155	0.0163625
876.233	0.0164198
876.311	0.0164385
876.389	0.0163460
876.467	0.0164639
876.545	0.0164761
876.623	0.0162952
876.701	0.0164728
876.780	0.0164246
876.858	0.0164414
876.936	0.0163953
877.014	0.0163552
877.092	0.0164123
877.170	0.0164346
877.248	0.0162247
877.326	0.0162116
877.405	0.0163474
877.483	0.0164956
877.561	0.0162717
877.639	0.0162778
877.717	0.0164046
877.795	0.0164114
877.873	0.0162868
877.951	0.0162924
878.030	0.0162585
878.108	0.0163464
878.186	0.0162736
878.264	0.0163065
878.342	0.0162386
878.420	0.0161886
878.498	0.0162731
878.576	0.0162954
878.655	0.0163714
878.733	0.0162712
878.811	0.0162977
878.889	0.0163190
878.967	0.0163130
879.045	0.0162875
879.123	0.0163158
879.201	0.0162183
879.280	0.0161012
879.358	0.0161375
879.436	0.0161379
879.514	0.0160688
879.592	0.0161643
879.670	0.0160538
879.748	0.0159575
879.826	0.0160427
879.905	0.0159673
879.983	0.0160495
880.061	0.0160045
880.139	0.0160947
880.217	0.0161446
880.295	0.0159942
880.373	0.0161542
880.451	0.0159301
880.530	0.0160749
880.608	0.0161992
880.686	0.0161955
880.764	0.0161791
880.842	0.0162130
880.920	0.0163188
880.998	0.0162045
881.076	0.0163488
881.155	0.0162883
881.233	0.0163005
881.311	0.0163508
881.389	0.0162080
881.467	0.0164031
881.545	0.0165064
881.623	0.0163952
881.701	0.0163316
881.780	0.0163779
881.858	0.0163898
881.936	0.0163811
882.014	0.0163268
882.092	0.0162845
882.170	0.0162611
882.248	0.0162577
882.326	0.0162492
882.405	0.0163139
882.483	0.0163033
882.561	0.0161753
882.639	0.0162583
882.717	0.0161166
882.795	0.0161540
882.873	0.0163594
882.951	0.0161553
883.030	0.0162170
883.108	0.0161311
883.186	0.0160717
883.264	0.0161290
883.342	0.0162613
883.420	0.0162624
883.498	0.0161361
883.576	0.0161227
883.655	0.0160648
883.733	0.0161157
883.811	0.0160968
883.889	0.0162000
883.967	0.0161992
884.045	0.0162548
884.123	0.0161793
884.201	0.0162382
884.280	0.0161123
884.358	0.0162437
884.436	0.0164279
884.514	0.0162646
884.592	0.0160988
884.670	0.0162411
884.748	0.0162097
884.826	0.0162555
884.905	0.0161876
884.983	0.0162040
885.061	0.0160394
885.139	0.0161214
885.217	0.0162106
885.295	0.0160112
885.373	0.0159952
885.451	0.0160809
885.530	0.0162743
885.608	0.0161047
885.686	0.0160815
885.764	0.0161838
885.842	0.0159942
885.920	0.0159574
885.998	0.0160341
886.076	0.0160193
886.155	0.0161365
886.233	0.0161851
886.311	0.0162001
886.389	0.0161642
886.467	0.0162766
886.545	0.0163322
886.623	0.0162421
886.701	0.0162003
886.780	0.0162282
886.858	0.0161729
886.936	0.0162342
887.014	0.0163396
887.092	0.0163218
887.170	0.0161189
887.248	0.0163041
887.326	0.0162511
887.405	0.0162340
887.483	0.0162568
887.561	0.0162309
887.639	0.0161230
887.717	0.0161668
887.795	0.0161871
887.873	0.0160969
887.951	0.0162881
888.030	0.0160783
888.108	0.0160537
888.186	0.0161327
888.264	0.0160426
888.342	0.0160831
888.420	0.0160994
888.498	0.0160640
888.576	0.0160509
888.655	0.0161315
888.733	0.0161169
888.811	0.0160492
888.889	0.0162206
888.967	0.0160948
889.045	0.0163116
889.123	0.0162204
889.201	0.0162379
889.280	0.0162814
889.358	0.0162408
889.436	0.0164772
889.514	0.0163199
889.592	0.0162898
889.670	0.0164129
889.748	0.0162830
889.826	0.0163397
889.905	0.0163626
889.983	0.0163748
890.061	0.0164748
890.139	0.0163707
890.217	0.0164661
890.295	0.0164516
890.373	0.0164049
890.451	0.0164536
890.530	0.0163584
890.608	0.0162164
890.686	0.0161789
890.764	0.0163956
890.842	0.0163512
890.920	0.0162212
890.998	0.0161552
891.076	0.0163593
891.155	0.0163143
891.233	0.0161168
891.311	0.0161996
891.389	0.0162251
891.467	0.0160208
891.545	0.0161369
891.623	0.0161915
891.701	0.0161047
891.780	0.0160559
891.858	0.0163783
891.936	0.0162515
892.014	0.0161703
892.092	0.0162368
892.170	0.0160224
892.248	0.0161399
892.326	0.0163458
892.405	0.0162901
892.483	0.0162437
892.561	0.0162965
892.639	0.0163197
892.717	0.0162946
892.795	0.0165176
892.873	0.0163992
892.951	0.0162154
893.030	0.0165085
893.108	0.0164744
893.186	0.0163985
893.264	0.0164352
893.342	0.0164552
893.420	0.0164000
893.498	0.0164587
893.576	0.0163294
893.655	0.0163523
893.733	0.0161983
893.811	0.0163631
893.889	0.0161806
893.967	0.0162557
894.045	0.0162585
894.123	0.0161324
894.201	0.0160856
894.280	0.0161751
894.358	0.0160318
894.436	0.0160250
894.514	0.0161044
894.592	0.0162204
894.670	0.0163065
894.748	0.0161153
894.826	0.0161989
894.905	0.0161655
894.983	0.0162152
895.061	0.0160757
895.139	0.0161789
895.217	0.0161742
895.295	0.0160825
895.373	0.0162223
895.451	0.0161392
895.530	0.0162927
895.608	0.0161481
895.686	0.0161256
895.764	0.0161349
895.842	0.0161397
895.920	0.0161906
895.998	0.0161831
896.076	0.0161475
896.155	0.0162007
896.233	0.0161952
896.311	0.0162274
896.389	0.0161610
896.467	0.0161918
896.545	0.0162522
896.623	0.0163398
896.701	0.0162976
896.780	0.0162872
896.858	0.0161726
896.936	0.0163260
897.014	0.0162965
897.092	0.0163213
897.170	0.0163236
897.248	0.0163876
897.326	0.0164236
897.405	0.0163167
897.483	0.0162833
897.561	0.0163012
897.639	0.0162985
897.717	0.0163937
897.795	0.0164663
897.873	0.0165021
897.951	0.0164496
898.030	0.0162546
898.108	0.0162785
898.186	0.0163643
898.264	0.0164073
898.342	0.0163691
898.420	0.0163820
898.498	0.0163882
898.576	0.0163052
898.655	0.0164645
898.733	0.0163100
898.811	0.0163465
898.889	0.0165140
898.967	0.0163420
899.045	0.0163145
899.123	0.0164518
899.201	0.0165688
899.280	0.0165500
899.358	0.0163841
899.436	0.0164242
899.514	0.0163662
899.592	0.0164566
899.670	0.0164607
899.748	0.0163846
899.826	0.0163317
899.905	0.0163412
899.983	0.0163478
900.061	0.0163145
900.139	0.0163972
900.217	0.0162558
900.295	0.0162672
900.373	0.0161581
900.451	0.0163540
900.530	0.0162881
900.608	0.0161793
900.686	0.0162424
900.764	0.0162856
900.842	0.0161480
900.920	0.0163024
900.998	0.0162326
901.076	0.0163493
901.155	0.0162368
901.233	0.0163313
901.311	0.0163152
901.389	0.0163142
901.467	0.0163522
901.545	0.0164405
901.623	0.0164272
901.701	0.0163508
901.780	0.0163326
901.858	0.0163065
901.936	0.0162344
902.014	0.0162333
902.092	0.0163316
902.170	0.0162756
902.248	0.0161747
902.326	0.0162933
902.405	0.0162714
902.483	0.0161105
902.561	0.0161790
902.639	0.0161138
902.717	0.0162029
902.795	0.0161175
902.873	0.0162389
902.951	0.0160996
903.030	0.0161208
903.108	0.0161333
903.186	0.0162492
903.264	0.0161628
903.342	0.0162068
903.420	0.0161507
903.498	0.0160670
903.576	0.0162211
903.655	0.0161436
903.733	0.0162231
903.811	0.0163187
903.889	0.0163348
903.967	0.0161776
904.045	0.0161761
904.123	0.0164492
904.201	0.0163599
904.280	0.0162790
904.358	0.0163203
904.436	0.0162206
904.514	0.0163599
904.592	0.0163756
904.670	0.0163198
904.748	0.0163354
904.826	0.0162292
904.905	0.0162797
904.983	0.0161527
905.061	0.0162353
905.139	0.0163253
905.217	0.0161468
905.295	0.0162087
905.373	0.0162978
905.451	0.0163058
905.530	0.0163419
905.608	0.0161578
905.686	0.0161932
905.764	0.0162896
905.842	0.0164049
905.920	0.0164286
905.998	0.0162048
906.076	0.0163553
906.155	0.0163273
906.233	0.0163398
906.311	0.0162762
906.389	0.0162727
906.467	0.0163932
906.545	0.0164005
906.623	0.0164413
906.701	0.0164375
906.780	0.0162228
906.858	0.0162320
906.936	0.0162648
907.014	0.0163023
907.092	0.0163548
907.170	0.0163918
907.248	0.0163634
907.326	0.0163246
907.405	0.0162619
907.483	0.0162878
907.561	0.0163138
907.639	0.0163184
907.717	0.0162634
907.795	0.0163295
907.873	0.0163976
907.951	0.0162793
908.030	0.0161737
908.108	0.0163255
908.186	0.0162704
908.264	0.0162709
908.342	0.0162628
908.420	0.0163043
908.498	0.0163728
908.576	0.0163609
908.655	0.0163467
908.733	0.0164022
908.811	0.0162708
908.889	0.0162826
908.967	0.0162746
909.045	0.0162350
909.123	0.0162231
909.201	0.0163343
909.280	0.0163271
909.358	0.0164396
909.436	0.0164163
909.514	0.0163251
909.592	0.0163405
909.670	0.0160349
909.748	0.0162698
909.826	0.0165097
909.905	0.0163819
909.983	0.0162677
910.061	0.0164509
910.139	0.0164920
910.217	0.0163245
910.295	0.0162584
910.373	0.0163802
910.451	0.0163454
910.530	0.0162539
910.608	0.0163414
910.686	0.0162757
910.764	0.0162904
910.842	0.0163071
910.920	0.0162898
910.998	0.0161382
911.076	0.0163535
911.155	0.0162885
911.233	0.0161488
911.311	0.0161214
911.389	0.0160706
911.467	0.0160458
911.545	0.0160722
911.623	0.0160524
911.701	0.0161086
911.780	0.0162019
911.858	0.0161942
911.936	0.0160020
912.014	0.0161164
912.092	0.0161258
912.170	0.0162843
912.248	0.0161540
912.326	0.0162659
912.405	0.0163192
912.483	0.0162926
912.561	0.0163166
912.639	0.0162841
912.717	0.0163644
912.795	0.0162827
912.873	0.0163485
912.951	0.0163163
913.030	0.0163784
913.108	0.0164018
913.186	0.0163768
913.264	0.0165129
913.342	0.0164904
913.420	0.0163980
913.498	0.0164549
913.576	0.0163013
913.655	0.0163347
913.733	0.0164530
913.811	0.0163594
913.889	0.0162688
913.967	0.0163013
914.045	0.0163670
914.123	0.0164138
914.201	0.0164109
914.280	0.0164037
914.358	0.0162866
914.436	0.0162703
914.514	0.0162836
914.592	0.0163966
914.670	0.0163461
914.748	0.0163212
914.826	0.0164143
914.905	0.0163261
914.983	0.0161839
915.061	0.0163433
915.139	0.0161131
915.217	0.0162518
915.295	0.0163551
915.373	0.0163243
915.451	0.0161559
915.530	0.0162312
915.608	0.0163490
915.686	0.0161357
915.764	0.0162943
915.842	0.0163975
915.920	0.0164462
915.998	0.0163969
916.076	0.0163923
916.155	0.0163669
916.233	0.0164899
916.311	0.0163226
916.389	0.0162402
916.467	0.0164006
916.545	0.0164378
916.623	0.0162724
916.701	0.0163796
916.780	0.0162347
916.858	0.0161802
916.936	0.0163714
917.014	0.0163638
917.092	0.0163390
917.170	0.0161246
917.248	0.0161104
917.326	0.0162853
917.405	0.0162407
917.483	0.0161690
917.561	0.0163960
917.639	0.0163024
917.717	0.0161762
917.795	0.0162360
917.873	0.0163122
917.951	0.0162830
918.030	0.0163055
918.108	0.0162505
918.186	0.0162307
918.264	0.0162638
918.342	0.0161629
918.420	0.0162888
918.498	0.0161681
918.576	0.0160287
918.655	0.0161914
918.733	0.0162627
918.811	0.0161413
918.889	0.0162149
918.967	0.0162686
919.045	0.0160504
919.123	0.0161381
919.201	0.0162935
919.280	0.0160175
919.358	0.0160563
919.436	0.0161584
919.514	0.0161022
919.592	0.0161052
919.670	0.0159248
919.748	0.0161222
919.826	0.0162530
919.905	0.0162281
919.983	0.0161648
920.061	0.0161967
920.139	0.0162701
920.217	0.0164388
920.295	0.0164428
920.373	0.0162074
920.451	0.0163342
920.530	0.0162511
920.608	0.0163274
920.686	0.0162841
920.764	0.0163987
920.842	0.0164404
920.920	0.0163922
920.998	0.0163851
921.076	0.0163412
921.155	0.0163765
921.233	0.0163873
921.311	0.0163978
921.389	0.0163823
921.467	0.0162782
921.545	0.0163516
921.623	0.0163999
921.701	0.0163816
921.780	0.0163647
921.858	0.0163679
921.936	0.0163512
922.014	0.0163352
922.092	0.0161124
922.170	0.0163053
922.248	0.0163792
922.326	0.0162912
922.405	0.0162796
922.483	0.0165112
922.561	0.0164039
922.639	0.0162739
922.717	0.0164628
922.795	0.0163605
922.873	0.0163320
922.951	0.0163198
923.030	0.0163482
923.108	0.0162614
923.186	0.0163304
923.264	0.0162799
923.342	0.0161671
923.420	0.0162495
923.498	0.0162648
923.576	0.0161651
923.655	0.0161353
923.733	0.0162049
923.811	0.0161397
923.889	0.0163047
923.967	0.0162251
924.045	0.0161356
924.123	0.0162648
924.201	0.0160474
924.280	0.0160969
924.358	0.0162308
924.436	0.0161101
924.514	0.0160734
924.592	0.0160524
924.670	0.0162497
924.748	0.0162479
924.826	0.0162142
924.905	0.0161760
924.983	0.0162144
925.061	0.0162592
925.139	0.0162459
925.217	0.0161919
925.295	0.0162037
925.373	0.0161930
925.451	0.0163855
925.530	0.0162613
925.608	0.0165408
925.686	0.0165062
925.764	0.0163355
925.842	0.0163152
925.920	0.0163803
925.998	0.0163858
926.076	0.0164581
926.155	0.0164124
926.233	0.0162361
926.311	0.0164651
926.389	0.0163814
926.467	0.0163425
926.545	0.0164016
926.623	0.0163483
926.701	0.0162611
926.780	0.0163420
926.858	0.0164879
926.936	0.0162588
927.014	0.0164644
927.092	0.0163825
927.170	0.0161707
927.248	0.0164729
927.326	0.0163956
927.405	0.0163970
927.483	0.0163660
927.561	0.0163921
927.639	0.0163026
927.717	0.0163197
927.795	0.0163578
927.873	0.0161437
927.951	0.0163013
928.030	0.0162127
928.108	0.0161566
928.186	0.0163793
928.264	0.0163211
928.342	0.0163327
928.420	0.0164101
928.498	0.0162921
928.576	0.0162568
928.655	0.0162331
928.733	0.0164622
928.811	0.0163495
928.889	0.0163333
928.967	0.0163488
929.045	0.0163058
929.123	0.0163902
929.201	0.0165113
929.280	0.0162623
929.358	0.0162845
929.436	0.0163158
929.514	0.0163726
929.592	0.0163656
929.670	0.0163010
929.748	0.0164133
929.826	0.0163358
929.905	0.0161674
929.983	0.0162508
930.061	0.0163525
930.139	0.0163724
930.217	0.0163715
930.295	0.0163259
930.373	0.0162115
930.451	0.0162560
930.530	0.0163135
930.608	0.0162531
930.686	0.0162902
930.764	0.0162825
930.842	0.0161744
930.920	0.0162447
930.998	0.0162623
931.076	0.0163233
931.155	0.0163345
931.233	0.0163358
931.311	0.0162891
931.389	0.0162494
931.467	0.0163070
931.545	0.0163676
931.623	0.0164133
931.701	0.0163494
931.780	0.0165038
931.858	0.0164527
931.936	0.0163498
932.014	0.0163488
932.092	0.0164046
932.170	0.0164259
932.248	0.0164079
932.326	0.0165396
932.405	0.0164627
932.483	0.0165575
932.561	0.0163866
932.639	0.0165141
932.717	0.0165230
932.795	0.0164172
932.873	0.0164311
932.951	0.0165545
933.030	0.0164324
933.108	0.0163506
933.186	0.0162752
933.264	0.0164072
933.342	0.0164729
933.420	0.0164132
933.498	0.0164509
933.576	0.0164761
933.655	0.0165497
933.733	0.0164016
933.811	0.0164546
933.889	0.0165079
933.967	0.0164860
934.045	0.0164132
934.123	0.0164059
934.201	0.0163441
934.280	0.0163855
934.358	0.0163775
934.436	0.0163757
934.514	0.0164098
934.592	0.0164153
934.670	0.0163234
934.748	0.0163221
934.826	0.0162357
934.905	0.0161750
934.983	0.0163448
935.061	0.0161695
935.139	0.0161822
935.217	0.0161890
935.295	0.0162577
935.373	0.0162515
935.451	0.0161843
935.530	0.0161661
935.608	0.0161718
935.686	0.0161551
935.764	0.0161305
935.842	0.0161287
935.920	0.0161652
935.998	0.0162583
936.076	0.0162364
936.155	0.0162083
936.233	0.0162880
936.311	0.0164069
936.389	0.0162582
936.467	0.0162279
936.545	0.0161568
936.623	0.0163074
936.701	0.0164070
936.780	0.0163689
936.858	0.0163971
936.936	0.0163016
937.014	0.0163795
937.092	0.0162544
937.170	0.0162774
937.248	0.0163288
937.326	0.0162139
937.405	0.0164559
937.483	0.0165067
937.561	0.0163136
937.639	0.0163390
937.717	0.0164563
937.795	0.0164325
937.873	0.0163927
937.951	0.0163203
938.030	0.0164436
938.108	0.0164541
938.186	0.0164805
938.264	0.0162825
938.342	0.0163851
938.420	0.0164478
938.498	0.0164522
938.576	0.0163589
938.655	0.0161562
938.733	0.0162122
938.811	0.0163855
938.889	0.0163203
938.967	0.0162203
939.045	0.0162983
939.123	0.0163115
939.201	0.0163300
939.280	0.0161711
939.358	0.0163717
939.436	0.0161993
939.514	0.0163007
939.592	0.0161639
939.670	0.0162421
939.748	0.0162601
939.826	0.0163165
939.905	0.0164001
939.983	0.0163348
940.061	0.0161879
940.139	0.0163641
940.217	0.0162351
940.295	0.0163114
940.373	0.0163300
940.451	0.0162577
940.530	0.0164680
940.608	0.0162688
940.686	0.0163554
940.764	0.0163461
940.842	0.0164054
940.920	0.0163754
940.998	0.0163688
941.076	0.0163599
941.155	0.0163779
941.233	0.0162915
941.311	0.0162597
941.389	0.0163623
941.467	0.0163458
941.545	0.0161974
941.623	0.0162897
941.701	0.0162026
941.780	0.0163578
941.858	0.0163097
941.936	0.0162119
942.014	0.0162872
942.092	0.0162605
942.170	0.0163101
942.248	0.0163844
942.326	0.0162966
942.405	0.0163246
942.483	0.0163975
942.561	0.0162834
942.639	0.0162871
942.717	0.0163585
942.795	0.0164109
942.873	0.0163640
942.951	0.0163503
943.030	0.0164725
943.108	0.0163200
943.186	0.0163134
943.264	0.0163774
943.342	0.0163485
943.420	0.0163271
943.498	0.0162335
943.576	0.0162466
943.655	0.0161626
943.733	0.0162114
943.811	0.0162774
943.889	0.0163731
943.967	0.0163249
944.045	0.0162253
944.123	0.0162396
944.201	0.0162594
944.280	0.0161630
944.358	0.0162112
944.436	0.0161382
944.514	0.0161958
944.592	0.0162109
944.670	0.0161699
944.748	0.0162468
944.826	0.0162443
944.905	0.0161618
944.983	0.0161958
945.061	0.0161460
945.139	0.0161710
945.217	0.0162755
945.295	0.0160809
945.373	0.0162337
945.451	0.0163284
945.530	0.0161849
945.608	0.0161707
945.686	0.0162393
945.764	0.0162675
945.842	0.0163386
945.920	0.0163341
945.998	0.0163262
946.076	0.0164393
946.155	0.0163336
946.233	0.0163641
946.311	0.0163692
946.389	0.0163801
946.467	0.0163107
946.545	0.0164058
946.623	0.0163535
946.701	0.0163848
946.780	0.0162779
946.858	0.0164196
946.936	0.0163142
947.014	0.0163307
947.092	0.0162688
947.170	0.0162660
947.248	0.0163699
947.326	0.0162872
947.405	0.0163228
947.483	0.0163237
947.561	0.0163745
947.639	0.0162531
947.717	0.0164394
947.795	0.0164184
947.873	0.0163589
947.951	0.0164410
948.030	0.0164358
948.108	0.0163369
948.186	0.0164378
948.264	0.0165079
948.342	0.0164071
948.420	0.0165136
948.498	0.0165398
948.576	0.0165659
948.655	0.0164124
948.733	0.0164641
948.811	0.0164515
948.889	0.0164497
948.967	0.0164386
949.045	0.0163537
949.123	0.0164120
949.201	0.0165250
949.280	0.0163527
949.358	0.0163612
949.436	0.0163329
949.514	0.0164156
949.592	0.0163024
949.670	0.0163224
949.748	0.0163439
949.826	0.0162893
949.905	0.0163149
949.983	0.0163180
950.061	0.0163462
950.139	0.0163027
950.217	0.0162707
950.295	0.0163075
950.373	0.0162337
950.451	0.0162508
950.530	0.0162907
950.608	0.0161301
950.686	0.0161081
950.764	0.0162300
950.842	0.0161938
950.920	0.0161729
950.998	0.0162138
951.076	0.0162547
951.155	0.0161697
951.233	0.0162618
951.311	0.0162019
951.389	0.0162263
951.467	0.0162641
951.545	0.0163140
951.623	0.0162830
951.701	0.0162389
951.780	0.0162663
951.858	0.0163987
951.936	0.0163346
952.014	0.0161485
952.092	0.0162380
952.170	0.0163370
952.248	0.0162195
952.326	0.0161801
952.405	0.0164539
952.483	0.0164007
952.561	0.0162467
952.639	0.0163665
952.717	0.0163357
952.795	0.0163715
952.873	0.0162672
952.951	0.0162843
953.030	0.0162256
953.108	0.0164230
953.186	0.0164165
953.264	0.0162813
953.342	0.0162633
953.420	0.0163620
953.498	0.0164715
953.576	0.0163227
953.655	0.0163814
953.733	0.0163528
953.811	0.0163389
953.889	0.0163303
953.967	0.0162543
954.045	0.0163475
954.123	0.0164374
954.201	0.0162762
954.280	0.0162766
954.358	0.0163236
954.436	0.0164127
954.514	0.0162377
954.592	0.0162788
954.670	0.0162173
954.748	0.0162925
954.826	0.0162730
954.905	0.0162428
954.983	0.0162809
955.061	0.0163668
955.139	0.0162884
955.217	0.0161676
955.295	0.0162428
955.373	0.0163422
955.451	0.0162646
955.530	0.0163557
955.608	0.0162533
955.686	0.0161753
955.764	0.0162669
955.842	0.0162944
955.920	0.0162018
955.998	0.0162634
956.076	0.0163914
956.155	0.0161980
956.233	0.0162639
956.311	0.0163397
956.389	0.0161696
956.467	0.0163422
956.545	0.0162704
956.623	0.0162931
956.701	0.0162567
956.780	0.0163227
956.858	0.0163758
956.936	0.0163165
957.014	0.0162330
957.092	0.0162153
957.170	0.0162274
957.248	0.0163192
957.326	0.0162363
957.405	0.0162848
957.483	0.0163300
957.561	0.0161305
957.639	0.0161930
957.717	0.0161565
957.795	0.0163033
957.873	0.0162348
957.951	0.0161247
958.030	0.0163498
958.108	0.0161567
958.186	0.0160966
958.264	0.0161188
958.342	0.0161720
958.420	0.0161322
958.498	0.0160885
958.576	0.0160426
958.655	0.0160150
958.733	0.0160538
958.811	0.0161212
958.889	0.0161510
958.967	0.0161524
959.045	0.0161997
959.123	0.0161776
959.201	0.0162343
959.280	0.0161073
959.358	0.0161473
959.436	0.0161334
959.514	0.0162051
959.592	0.0161603
959.670	0.0162645
959.748	0.0162206
959.826	0.0161527
959.905	0.0163328
