05/17/2022	17:00:24	Ver.	4.1	UNKNOWN
Optical Delay	639.982744	Delta X		0.078125	Sweeps	1	Scan Rate	0/0
Coordinates	Axis 1	NaN	Axis 2	NaN	Axis 3	NaN	Axis 4	NaN	Axis 5	NaN	Axis 6	0.000000
TX Power	0.000000	RX Power	0.000000

639.983	0.0162665
640.061	0.0161586
640.139	0.0162910
640.217	0.0164070
640.295	0.0164430
640.373	0.0163688
640.451	0.0162923
640.530	0.0163170
640.608	0.0162465
640.686	0.0163033
640.764	0.0161803
640.842	0.0162502
640.920	0.0163271
640.998	0.0163550
641.076	0.0162096
641.155	0.0162029
641.233	0.0162648
641.311	0.0161840
641.389	0.0163604
641.467	0.0163853
641.545	0.0163077
641.623	0.0162991
641.701	0.0159991
641.780	0.0162926
641.858	0.0163752
641.936	0.0163771
642.014	0.0163725
642.092	0.0162984
642.170	0.0163181
642.248	0.0164336
642.326	0.0163215
642.405	0.0163572
642.483	0.0163310
642.561	0.0162946
642.639	0.0164294
642.717	0.0162968
642.795	0.0162434
642.873	0.0164214
642.951	0.0163258
643.030	0.0161726
643.108	0.0163053
643.186	0.0161643
643.264	0.0163324
643.342	0.0163692
643.420	0.0162230
643.498	0.0161631
643.576	0.0161920
643.655	0.0162638
643.733	0.0161202
643.811	0.0161459
643.889	0.0162437
643.967	0.0163120
644.045	0.0162788
644.123	0.0162166
644.201	0.0162271
644.280	0.0162850
644.358	0.0161700
644.436	0.0163400
644.514	0.0163036
644.592	0.0162981
644.670	0.0164574
644.748	0.0164123
644.826	0.0163013
644.905	0.0163504
644.983	0.0163857
645.061	0.0164698
645.139	0.0162662
645.217	0.0162963
645.295	0.0162537
645.373	0.0163118
645.451	0.0163254
645.530	0.0163051
645.608	0.0163052
645.686	0.0163213
645.764	0.0163512
645.842	0.0163968
645.920	0.0162911
645.998	0.0162340
646.076	0.0163272
646.155	0.0164314
646.233	0.0163782
646.311	0.0162915
646.389	0.0164085
646.467	0.0163233
646.545	0.0163606
646.623	0.0164087
646.701	0.0164046
646.780	0.0165510
646.858	0.0163199
646.936	0.0163007
647.014	0.0164507
647.092	0.0161942
647.170	0.0163282
647.248	0.0164314
647.326	0.0163615
647.405	0.0165376
647.483	0.0163550
647.561	0.0164491
647.639	0.0163390
647.717	0.0162762
647.795	0.0162458
647.873	0.0161808
647.951	0.0161449
648.030	0.0162908
648.108	0.0162383
648.186	0.0161788
648.264	0.0162727
648.342	0.0162326
648.420	0.0161871
648.498	0.0161660
648.576	0.0160101
648.655	0.0160292
648.733	0.0161930
648.811	0.0162704
648.889	0.0160989
648.967	0.0160272
649.045	0.0162016
649.123	0.0162491
649.201	0.0163164
649.280	0.0162783
649.358	0.0161826
649.436	0.0162940
649.514	0.0162766
649.592	0.0162514
649.670	0.0162286
649.748	0.0162362
649.826	0.0162397
649.905	0.0162653
649.983	0.0161452
650.061	0.0161559
650.139	0.0161505
650.217	0.0161999
650.295	0.0160520
650.373	0.0160399
650.451	0.0160996
650.530	0.0160767
650.608	0.0160292
650.686	0.0158999
650.764	0.0160765
650.842	0.0160287
650.920	0.0160520
650.998	0.0160014
651.076	0.0161765
651.155	0.0159175
651.233	0.0160680
651.311	0.0159551
651.389	0.0161166
651.467	0.0160458
651.545	0.0162067
651.623	0.0162315
651.701	0.0161549
651.780	0.0159569
651.858	0.0160114
651.936	0.0161320
652.014	0.0161049
652.092	0.0163162
652.170	0.0160828
652.248	0.0161261
652.326	0.0162141
652.405	0.0161743
652.483	0.0161124
652.561	0.0161490
652.639	0.0161137
652.717	0.0160797
652.795	0.0161806
652.873	0.0160962
652.951	0.0161148
653.030	0.0161189
653.108	0.0160203
653.186	0.0161490
653.264	0.0159708
653.342	0.0162251
653.420	0.0163617
653.498	0.0162157
653.576	0.0161697
653.655	0.0163385
653.733	0.0162338
653.811	0.0164515
653.889	0.0164543
653.967	0.0162812
654.045	0.0164857
654.123	0.0163476
654.201	0.0164336
654.280	0.0162734
654.358	0.0162807
654.436	0.0165391
654.514	0.0164889
654.592	0.0164960
654.670	0.0165131
654.748	0.0162476
654.826	0.0163857
654.905	0.0163226
654.983	0.0164469
655.061	0.0164603
655.139	0.0164570
655.217	0.0164907
655.295	0.0165281
655.373	0.0164940
655.451	0.0163748
655.530	0.0164784
655.608	0.0164443
655.686	0.0164400
655.764	0.0163078
655.842	0.0163046
655.920	0.0162451
655.998	0.0164417
656.076	0.0164310
656.155	0.0163625
656.233	0.0163651
656.311	0.0162544
656.389	0.0164217
656.467	0.0163843
656.545	0.0164252
656.623	0.0165181
656.701	0.0163467
656.780	0.0164725
656.858	0.0164127
656.936	0.0164462
657.014	0.0165259
657.092	0.0164510
657.170	0.0164479
657.248	0.0164390
657.326	0.0163271
657.405	0.0164130
657.483	0.0164481
657.561	0.0163560
657.639	0.0164001
657.717	0.0164560
657.795	0.0163326
657.873	0.0163429
657.951	0.0163795
658.030	0.0162782
658.108	0.0163198
658.186	0.0161826
658.264	0.0162279
658.342	0.0162670
658.420	0.0163522
658.498	0.0163558
658.576	0.0163902
658.655	0.0164166
658.733	0.0162717
658.811	0.0163438
658.889	0.0163736
658.967	0.0164187
659.045	0.0163285
659.123	0.0163141
659.201	0.0161955
659.280	0.0162951
659.358	0.0162888
659.436	0.0164199
659.514	0.0163667
659.592	0.0163261
659.670	0.0163964
659.748	0.0162832
659.826	0.0161162
659.905	0.0162484
659.983	0.0162333
660.061	0.0162015
660.139	0.0162789
660.217	0.0162980
660.295	0.0162943
660.373	0.0161609
660.451	0.0162482
660.530	0.0162917
660.608	0.0162384
660.686	0.0162550
660.764	0.0162592
660.842	0.0161541
660.920	0.0162520
660.998	0.0165086
661.076	0.0161859
661.155	0.0162743
661.233	0.0161806
661.311	0.0161731
661.389	0.0161919
661.467	0.0162170
661.545	0.0163261
661.623	0.0162955
661.701	0.0161655
661.780	0.0162617
661.858	0.0161948
661.936	0.0161410
662.014	0.0161915
662.092	0.0161810
662.170	0.0160654
662.248	0.0159756
662.326	0.0161967
662.405	0.0162373
662.483	0.0161953
662.561	0.0163499
662.639	0.0161889
662.717	0.0162735
662.795	0.0163102
662.873	0.0163218
662.951	0.0163212
663.030	0.0162614
663.108	0.0163441
663.186	0.0163732
663.264	0.0164593
663.342	0.0164374
663.420	0.0163974
663.498	0.0164625
663.576	0.0164732
663.655	0.0163080
663.733	0.0164208
663.811	0.0163901
663.889	0.0164108
663.967	0.0163055
664.045	0.0163271
664.123	0.0163904
664.201	0.0164325
664.280	0.0164300
664.358	0.0162911
664.436	0.0162803
664.514	0.0162981
664.592	0.0163147
664.670	0.0164030
664.748	0.0162506
664.826	0.0162861
664.905	0.0163632
664.983	0.0163353
665.061	0.0164211
665.139	0.0163432
665.217	0.0162593
665.295	0.0163901
665.373	0.0163722
665.451	0.0163767
665.530	0.0162559
665.608	0.0163907
665.686	0.0163857
665.764	0.0162730
665.842	0.0163042
665.920	0.0164313
665.998	0.0164744
666.076	0.0164484
666.155	0.0165649
666.233	0.0163905
666.311	0.0163050
666.389	0.0165390
666.467	0.0164743
666.545	0.0164819
666.623	0.0165161
666.701	0.0165401
666.780	0.0165842
666.858	0.0164586
666.936	0.0163319
667.014	0.0163828
667.092	0.0163860
667.170	0.0162701
667.248	0.0162434
667.326	0.0160603
667.405	0.0160286
667.483	0.0160371
667.561	0.0159661
667.639	0.0161395
667.717	0.0158742
667.795	0.0159512
667.873	0.0157700
667.951	0.0160387
668.030	0.0159016
668.108	0.0159292
668.186	0.0159689
668.264	0.0161155
668.342	0.0160088
668.420	0.0162484
668.498	0.0164233
668.576	0.0163992
668.655	0.0163780
668.733	0.0165742
668.811	0.0164781
668.889	0.0166759
668.967	0.0167889
669.045	0.0166834
669.123	0.0167172
669.201	0.0166042
669.280	0.0166477
669.358	0.0166405
669.436	0.0165599
669.514	0.0165658
669.592	0.0163922
669.670	0.0163040
669.748	0.0163175
669.826	0.0161937
669.905	0.0160123
669.983	0.0161173
670.061	0.0160621
670.139	0.0157611
670.217	0.0158554
670.295	0.0156088
670.373	0.0156999
670.451	0.0157349
670.530	0.0156538
670.608	0.0156375
670.686	0.0155072
670.764	0.0154890
670.842	0.0156750
670.920	0.0156776
670.998	0.0157565
671.076	0.0157839
671.155	0.0158886
671.233	0.0161612
671.311	0.0161456
671.389	0.0162817
671.467	0.0162377
671.545	0.0164025
671.623	0.0165569
671.701	0.0167847
671.780	0.0167116
671.858	0.0166688
671.936	0.0166833
672.014	0.0170418
672.092	0.0169040
672.170	0.0168663
672.248	0.0169208
672.326	0.0169427
672.405	0.0167536
672.483	0.0167318
672.561	0.0167121
672.639	0.0165623
672.717	0.0164037
672.795	0.0162995
672.873	0.0162975
672.951	0.0161373
673.030	0.0160260
673.108	0.0159561
673.186	0.0156943
673.264	0.0157724
673.342	0.0156166
673.420	0.0154510
673.498	0.0154881
673.576	0.0154730
673.655	0.0155572
673.733	0.0154922
673.811	0.0156767
673.889	0.0155968
673.967	0.0157771
674.045	0.0158548
674.123	0.0157660
674.201	0.0159533
674.280	0.0159193
674.358	0.0161680
674.436	0.0161861
674.514	0.0162696
674.592	0.0163079
674.670	0.0164172
674.748	0.0163585
674.826	0.0163977
674.905	0.0164806
674.983	0.0165702
675.061	0.0165074
675.139	0.0164825
675.217	0.0164315
675.295	0.0165077
675.373	0.0166895
675.451	0.0166159
675.530	0.0166547
675.608	0.0166079
675.686	0.0166261
675.764	0.0166315
675.842	0.0165549
675.920	0.0165569
675.998	0.0166360
676.076	0.0167609
676.155	0.0166590
676.233	0.0165814
676.311	0.0166994
676.389	0.0166098
676.467	0.0166252
676.545	0.0166833
676.623	0.0166068
676.701	0.0162773
676.780	0.0162705
676.858	0.0163140
676.936	0.0160714
677.014	0.0160218
677.092	0.0159647
677.170	0.0159456
677.248	0.0156925
677.326	0.0155687
677.405	0.0156172
677.483	0.0156607
677.561	0.0155595
677.639	0.0155894
677.717	0.0156101
677.795	0.0156027
677.873	0.0155985
677.951	0.0156507
678.030	0.0157811
678.108	0.0159249
678.186	0.0160153
678.264	0.0161184
678.342	0.0162674
678.420	0.0163374
678.498	0.0163775
678.576	0.0165176
678.655	0.0168497
678.733	0.0169596
678.811	0.0169709
678.889	0.0169034
678.967	0.0169671
679.045	0.0170546
679.123	0.0171479
679.201	0.0171764
679.280	0.0168545
679.358	0.0168395
679.436	0.0168414
679.514	0.0166384
679.592	0.0164469
679.670	0.0163835
679.748	0.0162843
679.826	0.0160314
679.905	0.0157728
679.983	0.0157867
680.061	0.0157690
680.139	0.0156644
680.217	0.0154014
680.295	0.0153954
680.373	0.0152571
680.451	0.0151191
680.530	0.0154277
680.608	0.0154738
680.686	0.0153857
680.764	0.0154789
680.842	0.0156454
680.920	0.0158592
680.998	0.0159676
681.076	0.0161388
681.155	0.0161932
681.233	0.0164391
681.311	0.0168392
681.389	0.0167878
681.467	0.0170103
681.545	0.0170844
681.623	0.0172619
681.701	0.0173244
681.780	0.0174644
681.858	0.0175056
681.936	0.0175397
682.014	0.0176268
682.092	0.0173429
682.170	0.0175432
682.248	0.0173469
682.326	0.0173212
682.405	0.0171786
682.483	0.0171334
682.561	0.0168874
682.639	0.0167002
682.717	0.0164671
682.795	0.0163298
682.873	0.0164086
682.951	0.0160880
683.030	0.0158630
683.108	0.0159325
683.186	0.0156998
683.264	0.0155511
683.342	0.0155039
683.420	0.0155135
683.498	0.0154591
683.576	0.0154929
683.655	0.0156512
683.733	0.0154743
683.811	0.0156184
683.889	0.0155830
683.967	0.0157144
684.045	0.0155871
684.123	0.0155658
684.201	0.0154880
684.280	0.0157072
684.358	0.0156939
684.436	0.0156887
684.514	0.0155346
684.592	0.0155877
684.670	0.0155363
684.748	0.0154950
684.826	0.0155618
684.905	0.0154970
684.983	0.0154063
685.061	0.0155495
685.139	0.0155633
685.217	0.0156546
685.295	0.0156797
685.373	0.0156863
685.451	0.0158532
685.530	0.0159279
685.608	0.0159609
685.686	0.0161925
685.764	0.0163163
685.842	0.0162584
685.920	0.0164878
685.998	0.0166801
686.076	0.0167975
686.155	0.0169243
686.233	0.0171241
686.311	0.0172379
686.389	0.0175172
686.467	0.0176448
686.545	0.0176804
686.623	0.0177782
686.701	0.0178931
686.780	0.0178606
686.858	0.0180353
686.936	0.0180108
687.014	0.0179243
687.092	0.0180392
687.170	0.0179275
687.248	0.0179446
687.326	0.0178178
687.405	0.0176756
687.483	0.0176240
687.561	0.0173188
687.639	0.0169699
687.717	0.0168494
687.795	0.0166161
687.873	0.0162862
687.951	0.0159790
688.030	0.0157414
688.108	0.0155853
688.186	0.0151711
688.264	0.0149686
688.342	0.0148952
688.420	0.0147126
688.498	0.0144995
688.576	0.0145786
688.655	0.0143108
688.733	0.0143463
688.811	0.0144156
688.889	0.0143238
688.967	0.0143997
689.045	0.0147310
689.123	0.0148467
689.201	0.0151282
689.280	0.0152220
689.358	0.0154015
689.436	0.0156355
689.514	0.0157031
689.592	0.0160116
689.670	0.0161618
689.748	0.0163207
689.826	0.0164759
689.905	0.0165123
689.983	0.0166338
690.061	0.0167793
690.139	0.0168217
690.217	0.0168194
690.295	0.0167612
690.373	0.0167260
690.451	0.0167071
690.530	0.0169360
690.608	0.0168359
690.686	0.0167725
690.764	0.0166844
690.842	0.0168056
690.920	0.0167351
690.998	0.0165457
691.076	0.0166479
691.155	0.0166249
691.233	0.0163589
691.311	0.0164510
691.389	0.0162953
691.467	0.0163424
691.545	0.0163678
691.623	0.0162292
691.701	0.0161570
691.780	0.0162984
691.858	0.0161302
691.936	0.0161623
692.014	0.0162489
692.092	0.0163539
692.170	0.0163198
692.248	0.0163449
692.326	0.0163924
692.405	0.0166327
692.483	0.0166315
692.561	0.0166706
692.639	0.0167415
692.717	0.0167669
692.795	0.0167324
692.873	0.0168255
692.951	0.0167561
693.030	0.0168595
693.108	0.0167877
693.186	0.0168388
693.264	0.0166702
693.342	0.0166784
693.420	0.0166245
693.498	0.0166486
693.576	0.0162514
693.655	0.0162508
693.733	0.0163016
693.811	0.0162865
693.889	0.0161481
693.967	0.0160867
694.045	0.0159781
694.123	0.0157911
694.201	0.0156870
694.280	0.0156425
694.358	0.0157697
694.436	0.0155732
694.514	0.0154433
694.592	0.0153662
694.670	0.0155756
694.748	0.0153239
694.826	0.0152946
694.905	0.0153912
694.983	0.0154437
695.061	0.0153625
695.139	0.0155367
695.217	0.0155679
695.295	0.0155527
695.373	0.0156268
695.451	0.0158787
695.530	0.0159855
695.608	0.0159898
695.686	0.0159653
695.764	0.0160663
695.842	0.0161547
695.920	0.0162091
695.998	0.0162447
696.076	0.0163216
696.155	0.0162373
696.233	0.0162955
696.311	0.0163725
696.389	0.0162109
696.467	0.0162850
696.545	0.0161629
696.623	0.0162400
696.701	0.0162118
696.780	0.0162155
696.858	0.0161705
696.936	0.0161831
697.014	0.0161837
697.092	0.0163167
697.170	0.0163877
697.248	0.0165099
697.326	0.0165656
697.405	0.0167077
697.483	0.0167850
697.561	0.0169598
697.639	0.0168298
697.717	0.0169711
697.795	0.0171302
697.873	0.0172116
697.951	0.0172347
698.030	0.0171023
698.108	0.0170909
698.186	0.0171241
698.264	0.0169968
698.342	0.0170959
698.420	0.0170452
698.498	0.0169512
698.576	0.0167826
698.655	0.0166924
698.733	0.0167085
698.811	0.0165855
698.889	0.0164733
698.967	0.0164213
699.045	0.0163461
699.123	0.0161585
699.201	0.0161720
699.280	0.0161275
699.358	0.0158611
699.436	0.0158314
699.514	0.0156457
699.592	0.0157616
699.670	0.0156379
699.748	0.0155302
699.826	0.0153680
699.905	0.0155299
699.983	0.0154309
700.061	0.0153024
700.139	0.0154118
700.217	0.0152244
700.295	0.0155229
700.373	0.0154059
700.451	0.0155504
700.530	0.0156009
700.608	0.0156637
700.686	0.0157251
700.764	0.0158121
700.842	0.0158591
700.920	0.0158099
700.998	0.0161671
701.076	0.0160615
701.155	0.0160306
701.233	0.0161745
701.311	0.0160982
701.389	0.0160909
701.467	0.0159229
701.545	0.0161035
701.623	0.0161432
701.701	0.0162092
701.780	0.0161488
701.858	0.0162296
701.936	0.0162498
702.014	0.0161974
702.092	0.0164924
702.170	0.0164670
702.248	0.0164547
702.326	0.0166458
702.405	0.0167160
702.483	0.0166589
702.561	0.0168578
702.639	0.0168232
702.717	0.0168315
702.795	0.0168133
702.873	0.0168938
702.951	0.0168134
703.030	0.0168422
703.108	0.0168754
703.186	0.0166907
703.264	0.0166593
703.342	0.0167229
703.420	0.0166537
703.498	0.0166167
703.576	0.0164606
703.655	0.0164681
703.733	0.0164069
703.811	0.0162519
703.889	0.0163212
703.967	0.0162535
704.045	0.0163595
704.123	0.0160865
704.201	0.0161512
704.280	0.0160909
704.358	0.0159885
704.436	0.0160831
704.514	0.0158590
704.592	0.0159327
704.670	0.0158216
704.748	0.0158783
704.826	0.0159174
704.905	0.0157300
704.983	0.0156640
705.061	0.0156290
705.139	0.0156524
705.217	0.0157079
705.295	0.0156936
705.373	0.0156213
705.451	0.0155908
705.530	0.0156691
705.608	0.0155959
705.686	0.0157416
705.764	0.0157671
705.842	0.0156893
705.920	0.0157575
705.998	0.0157235
706.076	0.0158592
706.155	0.0159332
706.233	0.0159229
706.311	0.0156954
706.389	0.0158092
706.467	0.0157962
706.545	0.0158761
706.623	0.0160588
706.701	0.0160627
706.780	0.0161729
706.858	0.0162991
706.936	0.0163748
707.014	0.0164281
707.092	0.0166595
707.170	0.0167863
707.248	0.0169245
707.326	0.0169619
707.405	0.0170709
707.483	0.0172397
707.561	0.0171888
707.639	0.0171706
707.717	0.0172506
707.795	0.0173807
707.873	0.0171592
707.951	0.0172445
708.030	0.0171136
708.108	0.0170293
708.186	0.0168509
708.264	0.0168219
708.342	0.0163928
708.420	0.0162636
708.498	0.0161966
708.576	0.0160468
708.655	0.0157910
708.733	0.0156788
708.811	0.0154554
708.889	0.0154311
708.967	0.0151305
709.045	0.0151697
709.123	0.0152065
709.201	0.0150755
709.280	0.0149419
709.358	0.0149738
709.436	0.0149850
709.514	0.0150007
709.592	0.0151802
709.670	0.0154253
709.748	0.0154276
709.826	0.0155339
709.905	0.0155119
709.983	0.0157767
710.061	0.0158103
710.139	0.0160608
710.217	0.0161976
710.295	0.0163128
710.373	0.0163175
710.451	0.0164946
710.530	0.0164181
710.608	0.0166459
710.686	0.0166470
710.764	0.0165977
710.842	0.0167890
710.920	0.0166791
710.998	0.0166364
711.076	0.0167064
711.155	0.0167503
711.233	0.0168685
711.311	0.0168240
711.389	0.0166360
711.467	0.0167188
711.545	0.0166686
711.623	0.0165643
711.701	0.0166563
711.780	0.0165986
711.858	0.0166202
711.936	0.0167054
712.014	0.0166129
712.092	0.0163557
712.170	0.0162907
712.248	0.0162991
712.326	0.0162190
712.405	0.0162177
712.483	0.0161230
712.561	0.0160139
712.639	0.0158548
712.717	0.0157895
712.795	0.0158459
712.873	0.0159690
712.951	0.0158129
713.030	0.0157064
713.108	0.0159116
713.186	0.0158593
713.264	0.0159415
713.342	0.0160239
713.420	0.0161044
713.498	0.0162460
713.576	0.0162515
713.655	0.0162946
713.733	0.0163840
713.811	0.0163340
713.889	0.0162369
713.967	0.0165558
714.045	0.0166315
714.123	0.0166906
714.201	0.0166493
714.280	0.0164292
714.358	0.0164954
714.436	0.0164334
714.514	0.0162644
714.592	0.0163268
714.670	0.0161913
714.748	0.0160338
714.826	0.0162311
714.905	0.0161366
714.983	0.0159242
715.061	0.0159198
715.139	0.0160291
715.217	0.0160391
715.295	0.0160433
715.373	0.0160838
715.451	0.0161772
715.530	0.0162939
715.608	0.0163365
715.686	0.0163109
715.764	0.0164214
715.842	0.0165291
715.920	0.0165436
715.998	0.0165571
716.076	0.0164159
716.155	0.0164938
716.233	0.0163670
716.311	0.0164197
716.389	0.0164458
716.467	0.0162067
716.545	0.0163359
716.623	0.0162314
716.701	0.0160232
716.780	0.0159018
716.858	0.0157936
716.936	0.0156466
717.014	0.0157717
717.092	0.0157550
717.170	0.0155510
717.248	0.0157392
717.326	0.0156787
717.405	0.0156944
717.483	0.0158532
717.561	0.0158782
717.639	0.0158384
717.717	0.0159169
717.795	0.0160147
717.873	0.0161419
717.951	0.0161523
718.030	0.0162489
718.108	0.0163074
718.186	0.0165158
718.264	0.0166747
718.342	0.0165466
718.420	0.0166602
718.498	0.0168203
718.576	0.0168374
718.655	0.0169196
718.733	0.0168778
718.811	0.0170097
718.889	0.0169489
718.967	0.0170075
719.045	0.0170016
719.123	0.0168191
719.201	0.0167700
719.280	0.0168165
719.358	0.0166940
719.436	0.0165572
719.514	0.0165465
719.592	0.0162782
719.670	0.0162935
719.748	0.0162391
719.826	0.0160370
719.905	0.0158581
719.983	0.0158685
720.061	0.0159219
720.139	0.0158697
720.217	0.0156748
720.295	0.0157498
720.373	0.0158367
720.451	0.0159435
720.530	0.0157797
720.608	0.0158921
720.686	0.0161063
720.764	0.0160135
720.842	0.0162853
720.920	0.0161660
720.998	0.0161605
721.076	0.0163126
721.155	0.0163181
721.233	0.0161695
721.311	0.0164336
721.389	0.0162931
721.467	0.0161201
721.545	0.0163396
721.623	0.0161787
721.701	0.0162962
721.780	0.0163334
721.858	0.0163426
721.936	0.0163758
722.014	0.0162804
722.092	0.0163445
722.170	0.0163820
722.248	0.0164081
722.326	0.0163463
722.405	0.0163910
722.483	0.0164989
722.561	0.0164062
722.639	0.0165243
722.717	0.0165105
722.795	0.0166006
722.873	0.0164643
722.951	0.0165649
723.030	0.0165606
723.108	0.0167719
723.186	0.0166640
723.264	0.0165582
723.342	0.0166193
723.420	0.0165702
723.498	0.0164963
723.576	0.0165786
723.655	0.0164182
723.733	0.0164104
723.811	0.0161835
723.889	0.0161788
723.967	0.0162919
724.045	0.0160034
724.123	0.0160601
724.201	0.0159782
724.280	0.0158911
724.358	0.0158971
724.436	0.0159926
724.514	0.0157030
724.592	0.0158434
724.670	0.0158068
724.748	0.0156464
724.826	0.0156487
724.905	0.0157967
724.983	0.0159151
725.061	0.0157764
725.139	0.0156414
725.217	0.0156757
725.295	0.0158891
725.373	0.0157990
725.451	0.0158817
725.530	0.0159521
725.608	0.0159690
725.686	0.0160133
725.764	0.0159577
725.842	0.0159097
725.920	0.0159898
725.998	0.0160313
726.076	0.0163499
726.155	0.0163297
726.233	0.0163654
726.311	0.0163611
726.389	0.0164486
726.467	0.0166691
726.545	0.0168143
726.623	0.0168185
726.701	0.0167797
726.780	0.0169221
726.858	0.0170128
726.936	0.0168284
727.014	0.0168001
727.092	0.0168345
727.170	0.0166419
727.248	0.0166252
727.326	0.0166311
727.405	0.0165043
727.483	0.0164183
727.561	0.0162923
727.639	0.0160800
727.717	0.0158028
727.795	0.0158010
727.873	0.0156694
727.951	0.0155480
728.030	0.0157497
728.108	0.0156849
728.186	0.0154161
728.264	0.0156650
728.342	0.0156585
728.420	0.0155412
728.498	0.0157268
728.576	0.0160468
728.655	0.0160336
728.733	0.0161668
728.811	0.0162408
728.889	0.0163793
728.967	0.0164941
729.045	0.0166063
729.123	0.0168163
729.201	0.0168542
729.280	0.0167728
729.358	0.0168498
729.436	0.0168182
729.514	0.0166861
729.592	0.0167731
729.670	0.0166557
729.748	0.0165134
729.826	0.0164129
729.905	0.0162786
729.983	0.0162809
730.061	0.0160650
730.139	0.0161729
730.217	0.0163174
730.295	0.0160282
730.373	0.0161641
730.451	0.0162262
730.530	0.0161473
730.608	0.0162973
730.686	0.0162291
730.764	0.0162990
730.842	0.0164520
730.920	0.0164010
730.998	0.0165308
731.076	0.0165290
731.155	0.0165865
731.233	0.0164993
731.311	0.0163852
731.389	0.0164892
731.467	0.0163538
731.545	0.0162891
731.623	0.0162802
731.701	0.0162048
731.780	0.0161619
731.858	0.0159672
731.936	0.0157997
732.014	0.0156799
732.092	0.0155685
732.170	0.0154312
732.248	0.0154449
732.326	0.0153942
732.405	0.0153185
732.483	0.0152661
732.561	0.0151333
732.639	0.0151346
732.717	0.0152071
732.795	0.0152679
732.873	0.0153579
732.951	0.0154794
733.030	0.0156520
733.108	0.0157760
733.186	0.0159776
733.264	0.0161282
733.342	0.0161578
733.420	0.0164067
733.498	0.0165531
733.576	0.0167394
733.655	0.0168040
733.733	0.0170827
733.811	0.0172626
733.889	0.0172562
733.967	0.0171972
734.045	0.0171624
734.123	0.0172161
734.201	0.0170003
734.280	0.0169614
734.358	0.0169691
734.436	0.0167800
734.514	0.0167222
734.592	0.0166051
734.670	0.0163948
734.748	0.0162127
734.826	0.0160337
734.905	0.0160284
734.983	0.0160017
735.061	0.0159903
735.139	0.0159965
735.217	0.0161093
735.295	0.0161525
735.373	0.0160534
735.451	0.0161683
735.530	0.0161556
735.608	0.0162684
735.686	0.0163697
735.764	0.0163588
735.842	0.0165703
735.920	0.0165749
735.998	0.0166673
736.076	0.0166071
736.155	0.0166253
736.233	0.0164209
736.311	0.0165726
736.389	0.0164983
736.467	0.0163667
736.545	0.0165282
736.623	0.0163471
736.701	0.0162431
736.780	0.0163610
736.858	0.0162160
736.936	0.0163602
737.014	0.0162167
737.092	0.0162711
737.170	0.0160805
737.248	0.0161706
737.326	0.0162379
737.405	0.0161168
737.483	0.0160975
737.561	0.0160358
737.639	0.0160824
737.717	0.0161166
737.795	0.0162743
737.873	0.0162748
737.951	0.0162248
738.030	0.0161601
738.108	0.0162076
738.186	0.0163447
738.264	0.0162112
738.342	0.0162798
738.420	0.0163661
738.498	0.0163060
738.576	0.0162921
738.655	0.0163280
738.733	0.0163430
738.811	0.0163261
738.889	0.0164068
738.967	0.0161800
739.045	0.0161467
739.123	0.0159971
739.201	0.0160750
739.280	0.0160368
739.358	0.0158414
739.436	0.0159034
739.514	0.0160113
739.592	0.0159531
739.670	0.0159497
739.748	0.0158703
739.826	0.0159136
739.905	0.0159917
739.983	0.0160566
740.061	0.0160745
740.139	0.0161383
740.217	0.0162706
740.295	0.0161259
740.373	0.0163282
740.451	0.0164851
740.530	0.0163520
740.608	0.0166531
740.686	0.0166512
740.764	0.0166402
740.842	0.0168282
740.920	0.0167840
740.998	0.0168220
741.076	0.0166978
741.155	0.0168555
741.233	0.0167847
741.311	0.0167882
741.389	0.0168150
741.467	0.0168645
741.545	0.0168610
741.623	0.0168111
741.701	0.0167408
741.780	0.0166365
741.858	0.0167242
741.936	0.0167455
742.014	0.0165796
742.092	0.0166550
742.170	0.0166068
742.248	0.0165421
742.326	0.0166801
742.405	0.0165752
742.483	0.0165664
742.561	0.0164848
742.639	0.0164476
742.717	0.0165123
742.795	0.0165141
742.873	0.0164353
742.951	0.0163759
743.030	0.0163074
743.108	0.0162310
743.186	0.0162835
743.264	0.0163131
743.342	0.0163340
743.420	0.0161922
743.498	0.0161958
743.576	0.0159850
743.655	0.0160245
743.733	0.0160355
743.811	0.0160661
743.889	0.0159256
743.967	0.0159206
744.045	0.0159562
744.123	0.0160434
744.201	0.0161335
744.280	0.0160161
744.358	0.0160954
744.436	0.0160815
744.514	0.0161299
744.592	0.0161659
744.670	0.0162122
744.748	0.0163892
744.826	0.0162587
744.905	0.0162460
744.983	0.0163840
745.061	0.0163445
745.139	0.0164424
745.217	0.0164969
745.295	0.0165395
745.373	0.0164433
745.451	0.0163739
745.530	0.0165146
745.608	0.0163567
745.686	0.0162402
745.764	0.0163101
745.842	0.0162487
745.920	0.0162805
745.998	0.0161989
746.076	0.0162575
746.155	0.0160830
746.233	0.0161404
746.311	0.0163269
746.389	0.0163380
746.467	0.0161922
746.545	0.0162570
746.623	0.0163940
746.701	0.0165907
746.780	0.0165759
746.858	0.0164787
746.936	0.0166528
747.014	0.0164769
747.092	0.0165466
747.170	0.0166136
747.248	0.0167069
747.326	0.0166928
747.405	0.0164613
747.483	0.0164178
747.561	0.0163257
747.639	0.0163568
747.717	0.0163891
747.795	0.0162522
747.873	0.0160577
747.951	0.0161148
748.030	0.0161193
748.108	0.0159546
748.186	0.0159626
748.264	0.0159661
748.342	0.0160363
748.420	0.0160506
748.498	0.0159763
748.576	0.0157985
748.655	0.0159496
748.733	0.0161763
748.811	0.0162781
748.889	0.0161560
748.967	0.0161577
749.045	0.0162201
749.123	0.0162830
749.201	0.0163642
749.280	0.0164584
749.358	0.0163631
749.436	0.0165226
749.514	0.0164565
749.592	0.0164227
749.670	0.0165062
749.748	0.0164954
749.826	0.0164053
749.905	0.0163482
749.983	0.0162952
750.061	0.0162923
750.139	0.0161929
750.217	0.0160140
750.295	0.0161239
750.373	0.0160971
750.451	0.0158221
750.530	0.0159758
750.608	0.0159275
750.686	0.0159501
750.764	0.0159553
750.842	0.0158772
750.920	0.0159863
750.998	0.0161153
751.076	0.0160592
751.155	0.0159855
751.233	0.0160041
751.311	0.0161790
751.389	0.0162679
751.467	0.0163153
751.545	0.0161934
751.623	0.0163126
751.701	0.0163604
751.780	0.0163487
751.858	0.0163332
751.936	0.0164719
752.014	0.0165861
752.092	0.0164091
752.170	0.0163955
752.248	0.0164034
752.326	0.0162837
752.405	0.0162763
752.483	0.0163562
752.561	0.0163519
752.639	0.0160671
752.717	0.0162713
752.795	0.0162826
752.873	0.0161803
752.951	0.0161019
753.030	0.0159766
753.108	0.0159859
753.186	0.0158744
753.264	0.0158176
753.342	0.0158810
753.420	0.0158408
753.498	0.0159943
753.576	0.0159079
753.655	0.0159302
753.733	0.0160844
753.811	0.0162286
753.889	0.0163184
753.967	0.0161967
754.045	0.0162482
754.123	0.0164134
754.201	0.0165837
754.280	0.0166369
754.358	0.0165341
754.436	0.0165803
754.514	0.0164917
754.592	0.0164440
754.670	0.0164434
754.748	0.0164455
754.826	0.0164005
754.905	0.0164036
754.983	0.0162214
755.061	0.0161211
755.139	0.0162238
755.217	0.0161788
755.295	0.0160677
755.373	0.0160393
755.451	0.0159063
755.530	0.0160052
755.608	0.0159663
755.686	0.0159459
755.764	0.0160598
755.842	0.0160210
755.920	0.0161867
755.998	0.0163161
756.076	0.0163387
756.155	0.0163879
756.233	0.0164345
756.311	0.0164225
756.389	0.0164683
756.467	0.0164572
756.545	0.0165771
756.623	0.0165788
756.701	0.0167365
756.780	0.0166801
756.858	0.0166442
756.936	0.0166518
757.014	0.0166225
757.092	0.0164041
757.170	0.0165032
757.248	0.0163998
757.326	0.0163663
757.405	0.0163637
757.483	0.0163103
757.561	0.0162193
757.639	0.0162926
757.717	0.0161814
757.795	0.0161450
757.873	0.0160986
757.951	0.0161725
758.030	0.0160542
758.108	0.0160799
758.186	0.0161183
758.264	0.0159725
758.342	0.0162591
758.420	0.0160997
758.498	0.0161185
758.576	0.0161949
758.655	0.0162266
758.733	0.0162794
758.811	0.0163696
758.889	0.0165736
758.967	0.0163773
759.045	0.0164899
759.123	0.0166892
759.201	0.0165132
759.280	0.0165694
759.358	0.0166733
759.436	0.0166532
759.514	0.0165959
759.592	0.0165202
759.670	0.0165017
759.748	0.0165307
759.826	0.0164600
759.905	0.0165025
759.983	0.0164505
760.061	0.0163420
760.139	0.0165261
760.217	0.0164026
760.295	0.0162689
760.373	0.0162336
760.451	0.0162935
760.530	0.0163773
760.608	0.0163918
760.686	0.0163146
760.764	0.0162674
760.842	0.0162892
760.920	0.0163187
760.998	0.0163053
761.076	0.0162552
761.155	0.0163290
761.233	0.0164048
761.311	0.0163681
761.389	0.0162842
761.467	0.0162830
761.545	0.0163432
761.623	0.0164566
761.701	0.0163497
761.780	0.0163553
761.858	0.0164098
761.936	0.0164224
762.014	0.0162674
762.092	0.0163155
762.170	0.0163350
762.248	0.0161625
762.326	0.0162676
762.405	0.0163803
762.483	0.0162171
762.561	0.0163812
762.639	0.0163490
762.717	0.0162389
762.795	0.0162807
762.873	0.0163970
762.951	0.0164531
763.030	0.0164095
763.108	0.0163505
763.186	0.0163615
763.264	0.0164022
763.342	0.0163125
763.420	0.0162621
763.498	0.0162457
763.576	0.0162963
763.655	0.0164990
763.733	0.0164209
763.811	0.0162490
763.889	0.0162742
763.967	0.0162820
764.045	0.0162801
764.123	0.0162434
764.201	0.0164040
764.280	0.0163145
764.358	0.0162819
764.436	0.0163072
764.514	0.0161255
764.592	0.0162027
764.670	0.0162724
764.748	0.0162152
764.826	0.0161268
764.905	0.0162019
764.983	0.0161720
765.061	0.0162979
765.139	0.0163939
765.217	0.0164740
765.295	0.0165199
765.373	0.0164418
765.451	0.0164468
765.530	0.0165076
765.608	0.0166039
765.686	0.0165530
765.764	0.0165626
765.842	0.0166745
765.920	0.0165218
765.998	0.0165662
766.076	0.0164712
766.155	0.0163194
766.233	0.0165130
766.311	0.0163081
766.389	0.0164312
766.467	0.0161880
766.545	0.0163048
766.623	0.0162733
766.701	0.0162170
766.780	0.0161867
766.858	0.0163434
766.936	0.0160995
767.014	0.0161311
767.092	0.0161720
767.170	0.0162439
767.248	0.0161992
767.326	0.0162399
767.405	0.0162837
767.483	0.0161885
767.561	0.0161577
767.639	0.0161948
767.717	0.0162469
767.795	0.0163565
767.873	0.0163412
767.951	0.0162711
768.030	0.0162128
768.108	0.0161846
768.186	0.0163164
768.264	0.0164297
768.342	0.0163104
768.420	0.0161993
768.498	0.0162809
768.576	0.0162218
768.655	0.0160487
768.733	0.0161693
768.811	0.0161242
768.889	0.0161142
768.967	0.0161778
769.045	0.0161657
769.123	0.0162602
769.201	0.0162273
769.280	0.0162975
769.358	0.0161427
769.436	0.0162738
769.514	0.0162220
769.592	0.0162077
769.670	0.0161496
769.748	0.0161499
769.826	0.0162342
769.905	0.0163759
769.983	0.0161697
770.061	0.0161968
770.139	0.0162593
770.217	0.0161879
770.295	0.0161736
770.373	0.0161245
770.451	0.0161357
770.530	0.0160943
770.608	0.0161756
770.686	0.0160397
770.764	0.0161843
770.842	0.0161539
770.920	0.0160739
770.998	0.0161172
771.076	0.0161119
771.155	0.0162983
771.233	0.0162215
771.311	0.0162290
771.389	0.0161969
771.467	0.0163333
771.545	0.0161636
771.623	0.0161764
771.701	0.0163061
771.780	0.0163594
771.858	0.0163348
771.936	0.0163046
772.014	0.0164272
772.092	0.0162495
772.170	0.0162246
772.248	0.0161990
772.326	0.0161175
772.405	0.0161839
772.483	0.0161282
772.561	0.0160355
772.639	0.0160990
772.717	0.0161559
772.795	0.0160463
772.873	0.0161859
772.951	0.0160902
773.030	0.0159241
773.108	0.0159345
773.186	0.0160281
773.264	0.0161688
773.342	0.0161732
773.420	0.0160980
773.498	0.0161478
773.576	0.0162722
773.655	0.0162249
773.733	0.0161524
773.811	0.0162234
773.889	0.0161562
773.967	0.0161575
774.045	0.0161533
774.123	0.0160882
774.201	0.0161621
774.280	0.0161259
774.358	0.0159604
774.436	0.0159276
774.514	0.0160092
774.592	0.0159193
774.670	0.0160597
774.748	0.0161594
774.826	0.0162318
774.905	0.0160493
774.983	0.0161075
775.061	0.0160084
775.139	0.0160487
775.217	0.0162026
775.295	0.0161307
775.373	0.0161187
775.451	0.0160905
775.530	0.0161622
775.608	0.0160853
775.686	0.0161440
775.764	0.0162097
775.842	0.0162817
775.920	0.0161715
775.998	0.0162134
776.076	0.0163054
776.155	0.0161266
776.233	0.0161472
776.311	0.0160955
776.389	0.0162707
776.467	0.0161604
776.545	0.0160943
776.623	0.0161240
776.701	0.0162421
776.780	0.0161584
776.858	0.0160825
776.936	0.0161955
777.014	0.0162004
777.092	0.0162769
777.170	0.0162096
777.248	0.0161977
777.326	0.0161345
777.405	0.0162129
777.483	0.0162495
777.561	0.0162466
777.639	0.0163493
777.717	0.0163062
777.795	0.0163699
777.873	0.0163256
777.951	0.0164247
778.030	0.0162779
778.108	0.0162180
778.186	0.0163565
778.264	0.0163507
778.342	0.0164594
778.420	0.0161852
778.498	0.0162531
778.576	0.0164627
778.655	0.0163445
778.733	0.0164076
778.811	0.0164360
778.889	0.0163039
778.967	0.0164517
779.045	0.0163119
779.123	0.0164236
779.201	0.0164420
779.280	0.0165430
779.358	0.0164164
779.436	0.0164068
779.514	0.0164973
779.592	0.0164507
779.670	0.0163835
779.748	0.0163829
779.826	0.0162887
779.905	0.0161655
779.983	0.0162169
780.061	0.0160900
780.139	0.0162302
780.217	0.0160646
780.295	0.0161467
780.373	0.0161071
780.451	0.0159926
780.530	0.0161275
780.608	0.0161276
780.686	0.0160827
780.764	0.0161432
780.842	0.0161995
780.920	0.0162514
780.998	0.0162292
781.076	0.0161814
781.155	0.0163033
781.233	0.0163914
781.311	0.0162989
781.389	0.0164329
781.467	0.0164011
781.545	0.0163457
781.623	0.0163707
781.701	0.0165018
781.780	0.0164678
781.858	0.0164180
781.936	0.0163669
782.014	0.0163219
782.092	0.0164355
782.170	0.0163556
782.248	0.0162310
782.326	0.0162500
782.405	0.0161957
782.483	0.0162906
782.561	0.0162382
782.639	0.0162494
782.717	0.0162012
782.795	0.0163616
782.873	0.0163758
782.951	0.0163181
783.030	0.0163765
783.108	0.0164080
783.186	0.0164254
783.264	0.0164561
783.342	0.0165034
783.420	0.0165399
783.498	0.0165135
783.576	0.0166120
783.655	0.0166206
783.733	0.0165828
783.811	0.0165406
783.889	0.0164471
783.967	0.0165264
784.045	0.0163958
784.123	0.0165070
784.201	0.0164020
784.280	0.0164458
784.358	0.0163057
784.436	0.0162746
784.514	0.0161797
784.592	0.0162154
784.670	0.0160464
784.748	0.0160866
784.826	0.0162754
784.905	0.0160562
784.983	0.0161451
785.061	0.0160760
785.139	0.0160561
785.217	0.0161096
785.295	0.0160306
785.373	0.0160690
785.451	0.0161182
785.530	0.0161543
785.608	0.0160944
785.686	0.0160388
785.764	0.0160299
785.842	0.0161215
785.920	0.0161369
785.998	0.0161338
786.076	0.0161398
786.155	0.0162164
786.233	0.0162411
786.311	0.0161122
786.389	0.0162830
786.467	0.0163300
786.545	0.0163017
786.623	0.0163164
786.701	0.0162542
786.780	0.0163869
786.858	0.0164987
786.936	0.0164770
787.014	0.0165595
787.092	0.0166266
787.170	0.0166595
787.248	0.0166457
787.326	0.0167271
787.405	0.0166911
787.483	0.0165817
787.561	0.0165701
787.639	0.0165681
787.717	0.0166623
787.795	0.0164751
787.873	0.0165080
787.951	0.0164396
788.030	0.0163499
788.108	0.0164074
788.186	0.0162847
788.264	0.0162207
788.342	0.0162524
788.420	0.0161951
788.498	0.0162838
788.576	0.0161832
788.655	0.0162255
788.733	0.0162932
788.811	0.0163535
788.889	0.0163765
788.967	0.0163699
789.045	0.0163923
789.123	0.0164375
789.201	0.0164471
789.280	0.0165321
789.358	0.0164676
789.436	0.0164098
789.514	0.0164892
789.592	0.0166572
789.670	0.0165568
789.748	0.0165794
789.826	0.0164870
789.905	0.0163952
789.983	0.0165683
790.061	0.0163554
790.139	0.0162135
790.217	0.0163561
790.295	0.0163261
790.373	0.0162712
790.451	0.0161155
790.530	0.0161217
790.608	0.0161028
790.686	0.0159564
790.764	0.0160622
790.842	0.0159416
790.920	0.0159413
790.998	0.0160632
791.076	0.0160311
791.155	0.0160823
791.233	0.0159347
791.311	0.0160421
791.389	0.0160942
791.467	0.0160724
791.545	0.0159103
791.623	0.0161104
791.701	0.0159892
791.780	0.0160902
791.858	0.0160913
791.936	0.0159144
792.014	0.0159648
792.092	0.0161875
792.170	0.0160774
792.248	0.0159218
792.326	0.0159765
792.405	0.0162090
792.483	0.0161781
792.561	0.0160105
792.639	0.0160653
792.717	0.0159745
792.795	0.0160155
792.873	0.0161553
792.951	0.0161344
793.030	0.0161277
793.108	0.0162257
793.186	0.0161599
793.264	0.0162759
793.342	0.0161622
793.420	0.0161098
793.498	0.0161538
793.576	0.0161822
793.655	0.0163198
793.733	0.0162269
793.811	0.0162502
793.889	0.0162402
793.967	0.0162206
794.045	0.0162151
794.123	0.0162679
794.201	0.0163946
794.280	0.0162766
794.358	0.0163068
794.436	0.0161871
794.514	0.0162405
794.592	0.0164711
794.670	0.0162144
794.748	0.0161865
794.826	0.0161615
794.905	0.0161800
794.983	0.0161744
795.061	0.0162576
795.139	0.0161074
795.217	0.0161491
795.295	0.0162079
795.373	0.0161503
795.451	0.0163045
795.530	0.0162828
795.608	0.0161787
795.686	0.0162252
795.764	0.0161218
795.842	0.0161604
795.920	0.0161231
795.998	0.0159918
796.076	0.0159731
796.155	0.0159452
796.233	0.0157674
796.311	0.0158402
796.389	0.0157393
796.467	0.0158796
796.545	0.0156893
796.623	0.0157448
796.701	0.0156336
796.780	0.0157990
796.858	0.0159326
796.936	0.0157863
797.014	0.0157346
797.092	0.0159998
797.170	0.0159226
797.248	0.0160410
797.326	0.0161057
797.405	0.0160553
797.483	0.0160898
797.561	0.0161707
797.639	0.0160777
797.717	0.0161265
797.795	0.0161856
797.873	0.0162768
797.951	0.0161580
798.030	0.0161996
798.108	0.0160348
798.186	0.0160521
798.264	0.0161465
798.342	0.0161829
798.420	0.0162180
798.498	0.0161928
798.576	0.0161131
798.655	0.0160763
798.733	0.0162429
798.811	0.0162381
798.889	0.0161380
798.967	0.0162125
799.045	0.0162023
799.123	0.0162672
799.201	0.0163309
799.280	0.0163225
799.358	0.0162634
799.436	0.0162522
799.514	0.0163094
799.592	0.0163443
799.670	0.0163918
799.748	0.0163805
799.826	0.0163345
799.905	0.0162798
799.983	0.0162852
800.061	0.0164194
800.139	0.0163071
800.217	0.0162165
800.295	0.0162204
800.373	0.0162064
800.451	0.0163705
800.530	0.0161826
800.608	0.0163102
800.686	0.0161811
800.764	0.0160391
800.842	0.0162148
800.920	0.0162402
800.998	0.0160202
801.076	0.0161163
801.155	0.0163021
801.233	0.0162103
801.311	0.0161951
801.389	0.0160892
801.467	0.0161194
801.545	0.0160926
801.623	0.0160851
801.701	0.0162475
801.780	0.0160996
801.858	0.0161363
801.936	0.0161366
802.014	0.0161584
802.092	0.0162120
802.170	0.0162933
802.248	0.0161591
802.326	0.0161188
802.405	0.0162064
802.483	0.0162425
802.561	0.0161946
802.639	0.0161526
802.717	0.0161999
802.795	0.0160954
802.873	0.0163598
802.951	0.0161414
803.030	0.0161974
803.108	0.0162728
803.186	0.0161931
803.264	0.0164061
803.342	0.0162663
803.420	0.0163087
803.498	0.0162537
803.576	0.0163540
803.655	0.0163996
803.733	0.0163026
803.811	0.0164718
803.889	0.0164855
803.967	0.0163602
804.045	0.0164639
804.123	0.0164718
804.201	0.0162993
804.280	0.0164699
804.358	0.0163332
804.436	0.0163251
804.514	0.0161817
804.592	0.0164359
804.670	0.0162810
804.748	0.0162186
804.826	0.0162642
804.905	0.0163087
804.983	0.0161367
805.061	0.0161183
805.139	0.0163651
805.217	0.0162547
805.295	0.0162822
805.373	0.0160815
805.451	0.0163010
805.530	0.0161892
805.608	0.0161269
805.686	0.0161082
805.764	0.0162445
805.842	0.0161707
805.920	0.0162226
805.998	0.0162764
806.076	0.0161312
806.155	0.0162775
806.233	0.0162138
806.311	0.0161910
806.389	0.0163187
806.467	0.0161700
806.545	0.0161155
806.623	0.0160413
806.701	0.0161562
806.780	0.0161659
806.858	0.0162615
806.936	0.0161037
807.014	0.0161810
807.092	0.0160699
807.170	0.0161234
807.248	0.0160821
807.326	0.0160796
807.405	0.0161749
807.483	0.0160455
807.561	0.0160921
807.639	0.0161035
807.717	0.0162163
807.795	0.0161923
807.873	0.0161831
807.951	0.0163253
808.030	0.0163137
808.108	0.0162730
808.186	0.0164436
808.264	0.0165032
808.342	0.0163770
808.420	0.0163496
808.498	0.0164416
808.576	0.0165214
808.655	0.0163565
808.733	0.0163319
808.811	0.0163488
808.889	0.0163422
808.967	0.0163514
809.045	0.0164764
809.123	0.0164272
809.201	0.0163844
809.280	0.0163639
809.358	0.0162730
809.436	0.0162545
809.514	0.0163113
809.592	0.0163989
809.670	0.0163783
809.748	0.0162484
809.826	0.0163097
809.905	0.0163301
809.983	0.0164428
810.061	0.0163334
810.139	0.0162164
810.217	0.0163060
810.295	0.0162994
810.373	0.0163895
810.451	0.0163855
810.530	0.0163578
810.608	0.0162721
810.686	0.0162925
810.764	0.0163200
810.842	0.0162771
810.920	0.0161996
810.998	0.0162116
811.076	0.0161309
811.155	0.0161003
811.233	0.0162429
811.311	0.0162383
811.389	0.0163272
811.467	0.0161480
811.545	0.0161914
811.623	0.0162460
811.701	0.0162180
811.780	0.0161429
811.858	0.0162455
811.936	0.0164198
812.014	0.0162456
812.092	0.0162833
812.170	0.0162771
812.248	0.0164236
812.326	0.0163418
812.405	0.0163822
812.483	0.0162684
812.561	0.0162157
812.639	0.0165006
812.717	0.0165640
812.795	0.0162386
812.873	0.0162746
812.951	0.0165089
813.030	0.0163725
813.108	0.0162309
813.186	0.0163326
813.264	0.0163220
813.342	0.0162379
813.420	0.0162949
813.498	0.0161638
813.576	0.0162455
813.655	0.0163324
813.733	0.0163572
813.811	0.0163254
813.889	0.0162402
813.967	0.0162766
814.045	0.0163065
814.123	0.0164536
814.201	0.0164411
814.280	0.0165495
814.358	0.0164970
814.436	0.0163731
814.514	0.0164368
814.592	0.0163380
814.670	0.0163531
814.748	0.0164725
814.826	0.0163626
814.905	0.0163479
814.983	0.0163884
815.061	0.0163274
815.139	0.0162646
815.217	0.0162932
815.295	0.0163588
815.373	0.0163860
815.451	0.0161377
815.530	0.0161774
815.608	0.0161841
815.686	0.0161272
815.764	0.0162858
815.842	0.0164217
815.920	0.0162323
815.998	0.0162129
816.076	0.0163106
816.155	0.0161996
816.233	0.0162185
816.311	0.0162555
816.389	0.0162907
816.467	0.0163845
816.545	0.0162048
816.623	0.0162352
816.701	0.0161925
816.780	0.0162903
816.858	0.0163007
816.936	0.0161193
817.014	0.0161321
817.092	0.0161305
817.170	0.0161055
817.248	0.0162309
817.326	0.0161890
817.405	0.0161835
817.483	0.0160538
817.561	0.0160317
817.639	0.0159570
817.717	0.0159973
817.795	0.0160957
817.873	0.0160201
817.951	0.0159505
818.030	0.0160239
818.108	0.0159895
818.186	0.0162576
818.264	0.0161996
818.342	0.0162576
818.420	0.0161263
818.498	0.0161559
818.576	0.0162747
818.655	0.0161720
818.733	0.0161595
818.811	0.0163601
818.889	0.0163641
818.967	0.0163356
819.045	0.0162920
819.123	0.0163651
819.201	0.0164138
819.280	0.0164085
819.358	0.0163932
819.436	0.0164417
819.514	0.0164907
819.592	0.0164222
819.670	0.0163010
819.748	0.0163976
819.826	0.0164398
819.905	0.0165395
819.983	0.0164413
820.061	0.0163631
820.139	0.0163423
820.217	0.0164700
820.295	0.0165678
820.373	0.0164059
820.451	0.0162720
820.530	0.0164427
820.608	0.0163661
820.686	0.0161897
820.764	0.0164517
820.842	0.0164368
820.920	0.0163695
820.998	0.0162399
821.076	0.0161847
821.155	0.0161886
821.233	0.0161829
821.311	0.0161636
821.389	0.0161479
821.467	0.0160501
821.545	0.0159785
821.623	0.0160342
821.701	0.0160693
821.780	0.0159212
821.858	0.0159666
821.936	0.0159987
822.014	0.0159644
822.092	0.0161013
822.170	0.0160710
822.248	0.0161225
822.326	0.0160976
822.405	0.0161444
822.483	0.0161519
822.561	0.0159935
822.639	0.0162103
822.717	0.0161930
822.795	0.0162048
822.873	0.0161581
822.951	0.0162431
823.030	0.0161955
823.108	0.0163756
823.186	0.0163297
823.264	0.0163013
823.342	0.0163108
823.420	0.0162684
823.498	0.0163141
823.576	0.0162498
823.655	0.0160873
823.733	0.0162701
823.811	0.0162508
823.889	0.0163678
823.967	0.0163610
824.045	0.0163967
824.123	0.0164628
824.201	0.0161472
824.280	0.0163177
824.358	0.0162921
824.436	0.0161930
824.514	0.0162771
824.592	0.0162523
824.670	0.0163551
824.748	0.0161665
824.826	0.0162752
824.905	0.0162949
824.983	0.0162749
825.061	0.0162609
825.139	0.0161581
825.217	0.0161901
825.295	0.0159874
825.373	0.0161378
825.451	0.0161405
825.530	0.0160499
825.608	0.0161367
825.686	0.0161179
825.764	0.0161675
825.842	0.0160367
825.920	0.0160458
825.998	0.0159991
826.076	0.0160544
826.155	0.0162000
826.233	0.0162066
826.311	0.0160800
826.389	0.0161806
826.467	0.0161494
826.545	0.0161736
826.623	0.0161608
826.701	0.0161227
826.780	0.0159821
826.858	0.0160651
826.936	0.0161000
827.014	0.0161524
827.092	0.0160190
827.170	0.0161106
827.248	0.0161368
827.326	0.0160471
827.405	0.0160221
827.483	0.0159210
827.561	0.0160287
827.639	0.0160479
827.717	0.0161430
827.795	0.0160985
827.873	0.0162422
827.951	0.0160826
828.030	0.0162080
828.108	0.0161641
828.186	0.0160317
828.264	0.0162061
828.342	0.0162297
828.420	0.0161312
828.498	0.0161362
828.576	0.0162402
828.655	0.0161892
828.733	0.0162046
828.811	0.0162100
828.889	0.0162447
828.967	0.0161691
829.045	0.0162016
829.123	0.0162221
829.201	0.0161419
829.280	0.0160444
829.358	0.0161166
829.436	0.0160631
829.514	0.0159853
829.592	0.0160970
829.670	0.0160835
829.748	0.0161095
829.826	0.0162330
829.905	0.0162135
829.983	0.0161439
830.061	0.0162070
830.139	0.0162137
830.217	0.0162608
830.295	0.0163218
830.373	0.0163725
830.451	0.0163103
830.530	0.0164912
830.608	0.0165133
830.686	0.0163360
830.764	0.0163821
830.842	0.0164482
830.920	0.0163804
830.998	0.0164301
831.076	0.0164114
831.155	0.0164008
831.233	0.0164029
831.311	0.0163621
831.389	0.0163253
831.467	0.0162530
831.545	0.0162286
831.623	0.0160974
831.701	0.0162344
831.780	0.0162873
831.858	0.0163209
831.936	0.0162865
832.014	0.0163299
832.092	0.0161592
832.170	0.0162434
832.248	0.0162537
832.326	0.0162602
832.405	0.0161692
832.483	0.0162727
832.561	0.0163767
832.639	0.0163092
832.717	0.0162293
832.795	0.0162563
832.873	0.0161378
832.951	0.0161701
833.030	0.0162038
833.108	0.0161656
833.186	0.0160928
833.264	0.0159763
833.342	0.0159647
833.420	0.0161196
833.498	0.0161063
833.576	0.0159699
833.655	0.0159692
833.733	0.0159518
833.811	0.0160397
833.889	0.0161010
833.967	0.0160970
834.045	0.0162126
834.123	0.0162137
834.201	0.0161560
834.280	0.0162628
834.358	0.0161729
834.436	0.0162979
834.514	0.0162006
834.592	0.0162602
834.670	0.0163921
834.748	0.0162302
834.826	0.0164164
834.905	0.0163673
834.983	0.0163582
835.061	0.0162777
835.139	0.0163976
835.217	0.0162766
835.295	0.0163310
835.373	0.0162927
835.451	0.0163333
835.530	0.0162699
835.608	0.0163496
835.686	0.0163314
835.764	0.0163888
835.842	0.0163241
835.920	0.0162682
835.998	0.0162476
836.076	0.0162126
836.155	0.0163721
836.233	0.0163228
836.311	0.0162896
836.389	0.0163754
836.467	0.0164340
836.545	0.0163619
836.623	0.0162614
836.701	0.0163246
836.780	0.0163718
836.858	0.0164230
836.936	0.0163763
837.014	0.0164441
837.092	0.0166312
837.170	0.0164585
837.248	0.0163100
837.326	0.0164889
837.405	0.0164040
837.483	0.0163025
837.561	0.0164169
837.639	0.0162946
837.717	0.0163788
837.795	0.0163940
837.873	0.0162736
837.951	0.0163467
838.030	0.0163927
838.108	0.0163011
838.186	0.0163288
838.264	0.0163165
838.342	0.0163011
838.420	0.0163997
838.498	0.0162653
838.576	0.0164456
838.655	0.0164202
838.733	0.0164455
838.811	0.0164459
838.889	0.0164318
838.967	0.0164241
839.045	0.0164166
839.123	0.0164472
839.201	0.0162947
839.280	0.0163947
839.358	0.0164075
839.436	0.0163740
839.514	0.0163036
839.592	0.0163178
839.670	0.0163295
839.748	0.0161511
839.826	0.0162454
839.905	0.0164577
839.983	0.0163938
840.061	0.0163867
840.139	0.0163913
840.217	0.0162591
840.295	0.0162576
840.373	0.0163223
840.451	0.0164165
840.530	0.0163892
840.608	0.0163275
840.686	0.0161470
840.764	0.0163294
840.842	0.0162416
840.920	0.0163066
840.998	0.0163010
841.076	0.0160771
841.155	0.0162190
841.233	0.0162856
841.311	0.0162431
841.389	0.0161699
841.467	0.0160736
841.545	0.0159915
841.623	0.0161548
841.701	0.0162354
841.780	0.0162097
841.858	0.0161194
841.936	0.0162506
842.014	0.0161672
842.092	0.0160671
842.170	0.0163380
842.248	0.0162920
842.326	0.0162213
842.405	0.0161333
842.483	0.0161257
842.561	0.0162495
842.639	0.0162227
842.717	0.0161277
842.795	0.0162383
842.873	0.0162938
842.951	0.0165028
843.030	0.0164290
843.108	0.0164053
843.186	0.0164890
843.264	0.0164533
843.342	0.0162992
843.420	0.0163314
843.498	0.0163911
843.576	0.0163928
843.655	0.0163417
843.733	0.0163986
843.811	0.0163436
843.889	0.0163931
843.967	0.0163471
844.045	0.0163245
844.123	0.0164355
844.201	0.0163601
844.280	0.0162862
844.358	0.0161778
844.436	0.0164423
844.514	0.0163088
844.592	0.0162685
844.670	0.0163178
844.748	0.0163165
844.826	0.0162271
844.905	0.0162840
844.983	0.0162164
845.061	0.0162604
845.139	0.0163352
845.217	0.0164007
845.295	0.0163392
845.373	0.0162516
845.451	0.0164390
845.530	0.0163293
845.608	0.0163408
845.686	0.0164325
845.764	0.0164022
845.842	0.0163987
845.920	0.0162733
845.998	0.0163548
846.076	0.0163676
846.155	0.0164538
846.233	0.0163450
846.311	0.0162830
846.389	0.0163876
846.467	0.0165018
846.545	0.0163414
846.623	0.0162909
846.701	0.0163719
846.780	0.0164575
846.858	0.0162677
846.936	0.0162550
847.014	0.0163153
847.092	0.0162160
847.170	0.0162263
847.248	0.0161720
847.326	0.0162465
847.405	0.0162860
847.483	0.0163037
847.561	0.0161852
847.639	0.0162764
847.717	0.0162779
847.795	0.0162791
847.873	0.0161346
847.951	0.0160969
848.030	0.0162966
848.108	0.0162832
848.186	0.0162934
848.264	0.0161363
848.342	0.0161850
848.420	0.0163568
848.498	0.0161706
848.576	0.0161900
848.655	0.0163344
848.733	0.0162640
848.811	0.0163018
848.889	0.0162807
848.967	0.0163396
849.045	0.0161942
849.123	0.0162585
849.201	0.0162867
849.280	0.0161922
849.358	0.0161612
849.436	0.0161591
849.514	0.0163617
849.592	0.0161937
849.670	0.0161893
849.748	0.0161821
849.826	0.0162568
849.905	0.0160962
849.983	0.0161830
850.061	0.0163179
850.139	0.0162498
850.217	0.0161710
850.295	0.0162799
850.373	0.0161781
850.451	0.0162424
850.530	0.0160648
850.608	0.0161340
850.686	0.0162016
850.764	0.0162189
850.842	0.0161919
850.920	0.0162252
850.998	0.0161878
851.076	0.0161021
851.155	0.0160580
851.233	0.0161931
851.311	0.0161153
851.389	0.0160114
851.467	0.0161700
851.545	0.0162023
851.623	0.0161316
851.701	0.0161880
851.780	0.0161791
851.858	0.0160534
851.936	0.0162144
852.014	0.0161827
852.092	0.0160681
852.170	0.0161388
852.248	0.0160830
852.326	0.0160663
852.405	0.0161586
852.483	0.0161584
852.561	0.0161942
852.639	0.0161165
852.717	0.0162627
852.795	0.0162414
852.873	0.0160791
852.951	0.0160993
853.030	0.0161291
853.108	0.0161720
853.186	0.0162628
853.264	0.0163440
853.342	0.0162788
853.420	0.0161465
853.498	0.0160947
853.576	0.0162397
853.655	0.0161418
853.733	0.0161228
853.811	0.0162142
853.889	0.0162457
853.967	0.0160840
854.045	0.0160638
854.123	0.0162695
854.201	0.0161380
854.280	0.0159602
854.358	0.0160866
854.436	0.0161510
854.514	0.0161060
854.592	0.0162356
854.670	0.0160258
854.748	0.0159842
854.826	0.0160830
854.905	0.0161154
854.983	0.0160550
855.061	0.0160165
855.139	0.0160850
855.217	0.0160770
855.295	0.0160941
855.373	0.0160625
855.451	0.0160764
855.530	0.0162103
855.608	0.0161301
855.686	0.0160672
855.764	0.0160609
855.842	0.0161195
855.920	0.0160392
855.998	0.0160986
856.076	0.0162663
856.155	0.0161790
856.233	0.0161694
856.311	0.0161330
856.389	0.0162317
856.467	0.0161179
856.545	0.0162200
856.623	0.0161953
856.701	0.0161638
856.780	0.0162302
856.858	0.0160832
856.936	0.0161355
857.014	0.0161674
857.092	0.0162901
857.170	0.0161378
857.248	0.0161174
857.326	0.0161693
857.405	0.0161885
857.483	0.0161073
857.561	0.0161099
857.639	0.0161523
857.717	0.0162389
857.795	0.0161674
857.873	0.0162861
857.951	0.0162306
858.030	0.0161755
858.108	0.0162808
858.186	0.0163074
858.264	0.0161263
858.342	0.0162408
858.420	0.0163064
858.498	0.0161974
858.576	0.0162120
858.655	0.0163335
858.733	0.0161625
858.811	0.0162627
858.889	0.0162151
858.967	0.0161189
859.045	0.0162528
859.123	0.0163719
859.201	0.0162297
859.280	0.0163184
859.358	0.0161176
859.436	0.0162253
859.514	0.0163036
859.592	0.0161614
859.670	0.0160613
859.748	0.0162166
859.826	0.0162580
859.905	0.0162450
859.983	0.0162833
860.061	0.0163234
860.139	0.0164489
860.217	0.0163840
860.295	0.0164176
860.373	0.0164245
860.451	0.0163102
860.530	0.0164563
860.608	0.0164330
860.686	0.0163245
860.764	0.0163774
860.842	0.0162880
860.920	0.0163827
860.998	0.0162749
861.076	0.0163992
861.155	0.0163271
861.233	0.0163160
861.311	0.0162778
861.389	0.0162180
861.467	0.0162476
861.545	0.0160976
861.623	0.0163720
861.701	0.0162958
861.780	0.0161170
861.858	0.0163840
861.936	0.0162846
862.014	0.0162376
862.092	0.0162891
862.170	0.0163149
862.248	0.0163451
862.326	0.0163585
862.405	0.0163197
862.483	0.0163016
862.561	0.0162447
862.639	0.0163092
862.717	0.0161243
862.795	0.0162111
862.873	0.0161610
862.951	0.0164664
863.030	0.0163459
863.108	0.0162934
863.186	0.0161973
863.264	0.0162026
863.342	0.0161913
863.420	0.0161883
863.498	0.0163264
863.576	0.0161609
863.655	0.0161930
863.733	0.0164371
863.811	0.0162384
863.889	0.0163259
863.967	0.0163793
864.045	0.0162960
864.123	0.0161496
864.201	0.0162692
864.280	0.0162971
864.358	0.0161913
864.436	0.0163321
864.514	0.0164670
864.592	0.0162094
864.670	0.0163672
864.748	0.0163219
864.826	0.0162106
864.905	0.0161872
864.983	0.0163494
865.061	0.0163680
865.139	0.0162820
865.217	0.0162878
865.295	0.0164184
865.373	0.0164247
865.451	0.0162781
865.530	0.0162884
865.608	0.0164996
865.686	0.0163036
865.764	0.0164532
865.842	0.0162900
865.920	0.0163968
865.998	0.0162815
866.076	0.0165214
866.155	0.0163150
866.233	0.0164357
866.311	0.0164345
866.389	0.0164198
866.467	0.0165160
866.545	0.0165463
866.623	0.0164742
866.701	0.0163668
866.780	0.0165263
866.858	0.0163236
866.936	0.0163905
867.014	0.0164739
867.092	0.0164608
867.170	0.0163982
867.248	0.0164209
867.326	0.0163393
867.405	0.0163346
867.483	0.0163200
867.561	0.0162778
867.639	0.0162455
867.717	0.0162803
867.795	0.0163573
867.873	0.0163228
867.951	0.0161447
868.030	0.0161712
868.108	0.0163632
868.186	0.0162618
868.264	0.0161507
868.342	0.0162245
868.420	0.0163264
868.498	0.0162862
868.576	0.0163837
868.655	0.0162789
868.733	0.0163501
868.811	0.0163274
868.889	0.0162836
868.967	0.0163515
869.045	0.0163789
869.123	0.0163283
869.201	0.0163511
869.280	0.0163132
869.358	0.0163012
869.436	0.0162759
869.514	0.0163245
869.592	0.0163340
869.670	0.0163634
869.748	0.0164344
869.826	0.0161835
869.905	0.0163382
869.983	0.0162267
870.061	0.0162048
870.139	0.0161910
870.217	0.0162886
870.295	0.0162124
870.373	0.0162025
870.451	0.0162548
870.530	0.0163034
870.608	0.0163587
870.686	0.0163354
870.764	0.0162640
870.842	0.0161861
870.920	0.0161950
870.998	0.0160648
871.076	0.0162185
871.155	0.0161262
871.233	0.0161175
871.311	0.0160566
871.389	0.0160062
871.467	0.0159737
871.545	0.0161091
871.623	0.0159615
871.701	0.0160484
871.780	0.0160474
871.858	0.0160162
871.936	0.0160314
872.014	0.0160935
872.092	0.0159984
872.170	0.0160060
872.248	0.0161353
872.326	0.0162108
872.405	0.0162348
872.483	0.0162656
872.561	0.0162337
872.639	0.0162190
872.717	0.0162642
872.795	0.0163100
872.873	0.0164482
872.951	0.0163978
873.030	0.0163538
873.108	0.0163103
873.186	0.0163636
873.264	0.0162132
873.342	0.0163654
873.420	0.0163625
873.498	0.0165086
873.576	0.0163055
873.655	0.0163852
873.733	0.0164184
873.811	0.0163741
873.889	0.0163183
873.967	0.0163525
874.045	0.0162457
874.123	0.0161803
874.201	0.0162267
874.280	0.0162106
874.358	0.0161999
874.436	0.0162048
874.514	0.0162184
874.592	0.0161156
874.670	0.0160484
874.748	0.0161465
874.826	0.0160506
874.905	0.0161447
874.983	0.0160721
875.061	0.0159694
875.139	0.0161318
875.217	0.0160468
875.295	0.0161848
875.373	0.0160709
875.451	0.0161681
875.530	0.0162360
875.608	0.0161482
875.686	0.0163011
875.764	0.0161436
875.842	0.0161653
875.920	0.0162592
875.998	0.0160556
876.076	0.0162196
876.155	0.0163139
876.233	0.0161451
876.311	0.0161689
876.389	0.0161516
876.467	0.0162363
876.545	0.0160985
876.623	0.0162846
876.701	0.0162086
876.780	0.0162341
876.858	0.0162444
876.936	0.0161368
877.014	0.0161096
877.092	0.0161935
877.170	0.0161462
877.248	0.0161547
877.326	0.0162568
877.405	0.0162527
877.483	0.0162254
877.561	0.0162016
877.639	0.0161877
877.717	0.0161966
877.795	0.0162708
877.873	0.0162500
877.951	0.0162859
878.030	0.0162841
878.108	0.0162202
878.186	0.0161857
878.264	0.0162233
878.342	0.0162045
878.420	0.0162609
878.498	0.0161281
878.576	0.0161885
878.655	0.0162926
878.733	0.0162158
878.811	0.0161223
878.889	0.0160316
878.967	0.0161944
879.045	0.0160666
879.123	0.0160995
879.201	0.0162457
879.280	0.0160008
879.358	0.0160896
879.436	0.0159068
879.514	0.0160855
879.592	0.0159180
879.670	0.0159199
879.748	0.0159660
879.826	0.0160566
879.905	0.0160900
879.983	0.0160416
880.061	0.0160551
880.139	0.0159265
880.217	0.0160133
880.295	0.0160229
880.373	0.0160817
880.451	0.0160052
880.530	0.0161880
880.608	0.0161082
880.686	0.0160761
880.764	0.0162186
880.842	0.0162511
880.920	0.0161558
880.998	0.0161886
881.076	0.0161362
881.155	0.0163786
881.233	0.0161781
881.311	0.0162261
881.389	0.0163171
881.467	0.0161079
881.545	0.0162509
881.623	0.0163461
881.701	0.0161100
881.780	0.0161957
881.858	0.0162975
881.936	0.0162609
882.014	0.0162935
882.092	0.0160678
882.170	0.0161210
882.248	0.0161674
882.326	0.0162228
882.405	0.0160616
882.483	0.0161345
882.561	0.0162131
882.639	0.0162488
882.717	0.0161620
882.795	0.0162111
882.873	0.0161076
882.951	0.0161435
883.030	0.0162296
883.108	0.0161005
883.186	0.0161733
883.264	0.0162069
883.342	0.0161649
883.420	0.0161631
883.498	0.0161353
883.576	0.0162753
883.655	0.0162912
883.733	0.0163216
883.811	0.0162314
883.889	0.0163631
883.967	0.0163231
884.045	0.0162885
884.123	0.0163062
884.201	0.0162371
884.280	0.0162026
884.358	0.0163059
884.436	0.0163144
884.514	0.0162791
884.592	0.0163541
884.670	0.0163249
884.748	0.0161918
884.826	0.0163531
884.905	0.0163244
884.983	0.0161357
885.061	0.0163007
885.139	0.0162776
885.217	0.0161732
885.295	0.0162929
885.373	0.0161508
885.451	0.0160939
885.530	0.0160781
885.608	0.0161535
885.686	0.0160908
885.764	0.0161570
885.842	0.0161572
885.920	0.0162514
885.998	0.0163448
886.076	0.0162534
886.155	0.0161276
886.233	0.0162703
886.311	0.0162190
886.389	0.0161532
886.467	0.0161271
886.545	0.0160416
886.623	0.0161516
886.701	0.0160637
886.780	0.0162656
886.858	0.0161777
886.936	0.0162082
887.014	0.0160851
887.092	0.0160801
887.170	0.0160108
887.248	0.0161742
887.326	0.0162899
887.405	0.0161787
887.483	0.0162316
887.561	0.0160604
887.639	0.0161045
887.717	0.0161945
887.795	0.0161857
887.873	0.0163701
887.951	0.0160259
888.030	0.0161411
888.108	0.0162443
888.186	0.0162551
888.264	0.0161234
888.342	0.0161215
888.420	0.0160506
888.498	0.0162269
888.576	0.0163183
888.655	0.0162984
888.733	0.0162567
888.811	0.0161862
888.889	0.0162679
888.967	0.0163135
889.045	0.0162208
889.123	0.0163570
889.201	0.0164063
889.280	0.0164451
889.358	0.0163556
889.436	0.0163205
889.514	0.0163560
889.592	0.0163120
889.670	0.0163596
889.748	0.0165281
889.826	0.0162681
889.905	0.0162722
889.983	0.0163178
890.061	0.0164507
890.139	0.0164429
890.217	0.0164400
890.295	0.0163799
890.373	0.0163890
890.451	0.0162939
890.530	0.0163171
890.608	0.0164032
890.686	0.0162940
890.764	0.0162255
890.842	0.0162441
890.920	0.0162586
890.998	0.0163184
891.076	0.0163326
891.155	0.0161980
891.233	0.0163302
891.311	0.0162817
891.389	0.0163184
891.467	0.0163256
891.545	0.0162342
891.623	0.0161524
891.701	0.0161908
891.780	0.0163087
891.858	0.0162344
891.936	0.0162767
892.014	0.0162088
892.092	0.0162414
892.170	0.0163948
892.248	0.0164378
892.326	0.0163496
892.405	0.0162415
892.483	0.0163102
892.561	0.0163273
892.639	0.0163187
892.717	0.0163259
892.795	0.0164127
892.873	0.0163969
892.951	0.0163374
893.030	0.0162893
893.108	0.0162174
893.186	0.0161854
893.264	0.0165343
893.342	0.0163039
893.420	0.0163395
893.498	0.0163660
893.576	0.0162458
893.655	0.0163509
893.733	0.0163100
893.811	0.0162453
893.889	0.0162028
893.967	0.0161940
894.045	0.0161446
894.123	0.0162863
894.201	0.0162580
894.280	0.0160628
894.358	0.0160082
894.436	0.0161260
894.514	0.0161244
894.592	0.0161130
894.670	0.0161005
894.748	0.0161184
894.826	0.0161341
894.905	0.0161538
894.983	0.0161466
895.061	0.0161024
895.139	0.0160987
895.217	0.0160030
895.295	0.0161288
895.373	0.0161118
895.451	0.0161497
895.530	0.0162421
895.608	0.0161223
895.686	0.0162264
895.764	0.0161990
895.842	0.0161476
895.920	0.0161917
895.998	0.0161440
896.076	0.0162513
896.155	0.0161687
896.233	0.0162312
896.311	0.0162631
896.389	0.0161639
896.467	0.0163578
896.545	0.0162458
896.623	0.0161720
896.701	0.0162716
896.780	0.0162273
896.858	0.0163162
896.936	0.0161568
897.014	0.0161745
897.092	0.0163068
897.170	0.0162550
897.248	0.0162333
897.326	0.0162132
897.405	0.0162182
897.483	0.0161706
897.561	0.0162673
897.639	0.0162901
897.717	0.0163242
897.795	0.0161656
897.873	0.0162700
897.951	0.0162255
898.030	0.0162847
898.108	0.0163368
898.186	0.0163043
898.264	0.0163564
898.342	0.0163483
898.420	0.0162769
898.498	0.0164482
898.576	0.0164523
898.655	0.0163825
898.733	0.0164616
898.811	0.0164214
898.889	0.0165485
898.967	0.0163650
899.045	0.0164413
899.123	0.0164327
899.201	0.0164933
899.280	0.0162926
899.358	0.0163241
899.436	0.0163163
899.514	0.0163293
899.592	0.0162374
899.670	0.0163052
899.748	0.0163120
899.826	0.0162757
899.905	0.0162943
899.983	0.0162553
900.061	0.0162088
900.139	0.0162256
900.217	0.0161810
900.295	0.0163009
900.373	0.0161776
900.451	0.0160806
900.530	0.0161553
900.608	0.0161790
900.686	0.0162973
900.764	0.0161337
900.842	0.0161584
900.920	0.0162933
900.998	0.0163675
901.076	0.0163010
901.155	0.0162870
901.233	0.0163010
901.311	0.0162218
901.389	0.0162941
901.467	0.0163614
901.545	0.0162373
901.623	0.0164305
901.701	0.0164629
901.780	0.0164377
901.858	0.0163389
901.936	0.0162871
902.014	0.0163872
902.092	0.0162225
902.170	0.0163419
902.248	0.0162935
902.326	0.0164863
902.405	0.0162559
902.483	0.0161594
902.561	0.0163335
902.639	0.0163382
902.717	0.0163664
902.795	0.0163422
902.873	0.0163446
902.951	0.0162519
903.030	0.0161921
903.108	0.0162125
903.186	0.0162035
903.264	0.0161555
903.342	0.0162079
903.420	0.0161513
903.498	0.0162737
903.576	0.0161498
903.655	0.0160803
903.733	0.0161142
903.811	0.0160224
903.889	0.0162453
903.967	0.0161442
904.045	0.0163062
904.123	0.0162126
904.201	0.0159921
904.280	0.0163071
904.358	0.0160614
904.436	0.0160439
904.514	0.0163589
904.592	0.0161653
904.670	0.0163171
904.748	0.0163019
904.826	0.0161833
904.905	0.0163666
904.983	0.0162252
905.061	0.0162393
905.139	0.0162696
905.217	0.0163602
905.295	0.0162562
905.373	0.0161655
905.451	0.0161901
905.530	0.0163553
905.608	0.0162527
905.686	0.0162407
905.764	0.0163074
905.842	0.0161751
905.920	0.0161719
905.998	0.0162658
906.076	0.0162247
906.155	0.0162777
906.233	0.0161853
906.311	0.0162413
906.389	0.0161691
906.467	0.0161876
906.545	0.0161364
906.623	0.0161658
906.701	0.0162325
906.780	0.0163525
906.858	0.0161770
906.936	0.0162000
907.014	0.0162991
907.092	0.0164036
907.170	0.0162412
907.248	0.0163142
907.326	0.0163306
907.405	0.0162952
907.483	0.0163487
907.561	0.0164617
907.639	0.0164159
907.717	0.0162541
907.795	0.0162740
907.873	0.0163514
907.951	0.0164529
908.030	0.0163117
908.108	0.0163316
908.186	0.0162430
908.264	0.0161778
908.342	0.0162180
908.420	0.0162627
908.498	0.0161035
908.576	0.0161745
908.655	0.0162824
908.733	0.0163068
908.811	0.0161581
908.889	0.0160822
908.967	0.0162075
909.045	0.0162823
909.123	0.0162541
909.201	0.0162853
909.280	0.0163050
909.358	0.0162501
909.436	0.0164984
909.514	0.0163225
909.592	0.0163059
909.670	0.0161718
909.748	0.0162669
909.826	0.0164229
909.905	0.0163618
909.983	0.0162463
910.061	0.0163103
910.139	0.0163274
910.217	0.0163864
910.295	0.0162980
910.373	0.0164046
910.451	0.0162331
910.530	0.0162903
910.608	0.0160696
910.686	0.0160905
910.764	0.0160954
910.842	0.0161475
910.920	0.0161421
910.998	0.0160250
911.076	0.0160989
911.155	0.0159528
911.233	0.0161316
911.311	0.0161599
911.389	0.0160559
911.467	0.0160347
911.545	0.0161791
911.623	0.0160503
911.701	0.0159860
911.780	0.0161365
911.858	0.0161089
911.936	0.0160931
912.014	0.0161178
912.092	0.0160458
912.170	0.0161490
912.248	0.0161568
912.326	0.0163986
912.405	0.0163501
912.483	0.0161773
912.561	0.0162222
912.639	0.0162203
912.717	0.0161864
912.795	0.0162584
912.873	0.0162734
912.951	0.0163898
913.030	0.0163890
913.108	0.0163866
913.186	0.0163886
913.264	0.0163873
913.342	0.0163815
913.420	0.0163882
913.498	0.0163847
913.576	0.0163715
913.655	0.0163570
913.733	0.0162778
913.811	0.0163570
913.889	0.0162793
913.967	0.0162350
914.045	0.0163020
914.123	0.0162961
914.201	0.0164299
914.280	0.0162507
914.358	0.0163097
914.436	0.0163213
914.514	0.0163762
914.592	0.0163011
914.670	0.0164082
914.748	0.0161896
914.826	0.0162787
914.905	0.0164642
914.983	0.0164031
915.061	0.0163427
915.139	0.0162189
915.217	0.0162177
915.295	0.0163354
915.373	0.0163520
915.451	0.0163255
915.530	0.0163427
915.608	0.0163512
915.686	0.0164072
915.764	0.0162771
915.842	0.0163141
915.920	0.0163544
915.998	0.0163171
916.076	0.0164077
916.155	0.0165776
916.233	0.0164179
916.311	0.0163689
916.389	0.0163008
916.467	0.0163386
916.545	0.0162780
916.623	0.0162755
916.701	0.0163183
916.780	0.0163554
916.858	0.0163170
916.936	0.0163454
917.014	0.0164522
917.092	0.0162868
917.170	0.0163254
917.248	0.0163127
917.326	0.0162354
917.405	0.0163004
917.483	0.0163924
917.561	0.0163674
917.639	0.0162967
917.717	0.0162885
917.795	0.0162579
917.873	0.0163786
917.951	0.0162777
918.030	0.0162284
918.108	0.0162490
918.186	0.0163178
918.264	0.0162566
918.342	0.0163539
918.420	0.0162851
918.498	0.0162906
918.576	0.0162036
918.655	0.0162157
918.733	0.0160957
918.811	0.0161697
918.889	0.0162791
918.967	0.0161785
919.045	0.0160979
919.123	0.0162189
919.201	0.0162228
919.280	0.0162579
919.358	0.0161859
919.436	0.0162341
919.514	0.0162196
919.592	0.0161694
919.670	0.0161478
919.748	0.0163249
919.826	0.0161906
919.905	0.0162310
919.983	0.0163004
920.061	0.0163484
920.139	0.0162701
920.217	0.0163242
920.295	0.0162284
920.373	0.0162989
920.451	0.0163259
920.530	0.0162213
920.608	0.0162619
920.686	0.0163195
920.764	0.0163525
920.842	0.0162647
920.920	0.0162271
920.998	0.0162202
921.076	0.0163795
921.155	0.0162932
921.233	0.0163729
921.311	0.0164404
921.389	0.0162555
921.467	0.0162347
921.545	0.0161948
921.623	0.0162339
921.701	0.0162042
921.780	0.0162511
921.858	0.0162430
921.936	0.0162706
922.014	0.0163968
922.092	0.0164395
922.170	0.0163202
922.248	0.0162435
922.326	0.0164168
922.405	0.0163975
922.483	0.0164030
922.561	0.0163405
922.639	0.0163400
922.717	0.0163870
922.795	0.0164297
922.873	0.0164391
922.951	0.0164499
923.030	0.0164247
923.108	0.0162759
923.186	0.0162704
923.264	0.0163998
923.342	0.0164023
923.420	0.0163702
923.498	0.0163646
923.576	0.0163474
923.655	0.0163863
923.733	0.0164679
923.811	0.0161298
923.889	0.0162543
923.967	0.0162009
924.045	0.0162939
924.123	0.0162813
924.201	0.0163255
924.280	0.0161764
924.358	0.0161721
924.436	0.0163357
924.514	0.0162460
924.592	0.0161650
924.670	0.0162036
924.748	0.0161253
924.826	0.0161532
924.905	0.0163476
924.983	0.0162598
925.061	0.0162402
925.139	0.0163981
925.217	0.0163668
925.295	0.0162767
925.373	0.0162523
925.451	0.0163264
925.530	0.0163570
925.608	0.0163731
925.686	0.0163778
925.764	0.0162488
925.842	0.0163637
925.920	0.0162415
925.998	0.0162899
926.076	0.0162644
926.155	0.0161672
926.233	0.0162229
926.311	0.0161974
926.389	0.0162838
926.467	0.0162498
926.545	0.0160924
926.623	0.0161156
926.701	0.0161067
926.780	0.0161488
926.858	0.0161002
926.936	0.0161114
927.014	0.0161095
927.092	0.0161341
927.170	0.0161054
927.248	0.0161796
927.326	0.0161663
927.405	0.0159830
927.483	0.0160510
927.561	0.0162809
927.639	0.0161407
927.717	0.0160867
927.795	0.0161134
927.873	0.0159751
927.951	0.0159029
928.030	0.0160371
928.108	0.0162264
928.186	0.0161801
928.264	0.0159802
928.342	0.0162097
928.420	0.0162493
928.498	0.0160342
928.576	0.0161552
928.655	0.0162545
928.733	0.0161469
928.811	0.0161229
928.889	0.0162040
928.967	0.0162911
929.045	0.0162095
929.123	0.0163087
929.201	0.0164147
929.280	0.0162464
929.358	0.0162730
929.436	0.0163776
929.514	0.0163229
929.592	0.0163574
929.670	0.0163280
929.748	0.0163184
929.826	0.0164787
929.905	0.0164023
929.983	0.0163176
930.061	0.0162727
930.139	0.0163622
930.217	0.0164346
930.295	0.0162215
930.373	0.0163554
930.451	0.0163247
930.530	0.0162342
930.608	0.0162157
930.686	0.0162241
930.764	0.0163132
930.842	0.0162731
930.920	0.0160963
930.998	0.0162711
931.076	0.0163818
931.155	0.0163331
931.233	0.0162295
931.311	0.0161964
931.389	0.0162371
931.467	0.0163189
931.545	0.0163361
931.623	0.0163873
931.701	0.0163558
931.780	0.0163318
931.858	0.0164462
931.936	0.0163963
932.014	0.0163995
932.092	0.0165068
932.170	0.0165426
932.248	0.0164209
932.326	0.0164608
932.405	0.0163916
932.483	0.0163973
932.561	0.0164473
932.639	0.0163584
932.717	0.0163467
932.795	0.0163598
932.873	0.0163557
932.951	0.0164432
933.030	0.0163371
933.108	0.0164139
933.186	0.0163136
933.264	0.0162485
933.342	0.0161378
933.420	0.0163159
933.498	0.0163103
933.576	0.0162305
933.655	0.0163363
933.733	0.0162566
933.811	0.0163165
933.889	0.0163593
933.967	0.0163211
934.045	0.0162050
934.123	0.0162190
934.201	0.0163532
934.280	0.0160928
934.358	0.0163026
934.436	0.0163251
934.514	0.0162833
934.592	0.0163086
934.670	0.0162842
934.748	0.0161900
934.826	0.0160629
934.905	0.0161044
934.983	0.0161824
935.061	0.0160200
935.139	0.0162096
935.217	0.0162577
935.295	0.0162189
935.373	0.0161175
935.451	0.0160847
935.530	0.0161093
935.608	0.0161606
935.686	0.0160829
935.764	0.0161418
935.842	0.0160709
935.920	0.0160635
935.998	0.0162390
936.076	0.0162801
936.155	0.0163338
936.233	0.0161773
936.311	0.0161019
936.389	0.0160587
936.467	0.0161877
936.545	0.0162147
936.623	0.0162757
936.701	0.0163120
936.780	0.0162757
936.858	0.0163229
936.936	0.0162784
937.014	0.0163184
937.092	0.0163020
937.170	0.0163559
937.248	0.0162717
937.326	0.0163612
937.405	0.0161848
937.483	0.0162486
937.561	0.0164499
937.639	0.0163248
937.717	0.0164033
937.795	0.0163931
937.873	0.0162476
937.951	0.0163628
938.030	0.0164030
938.108	0.0162937
938.186	0.0163333
938.264	0.0162856
938.342	0.0162901
938.420	0.0163620
938.498	0.0163245
938.576	0.0163224
938.655	0.0162972
938.733	0.0162564
938.811	0.0162806
938.889	0.0162846
938.967	0.0163551
939.045	0.0161758
939.123	0.0162599
939.201	0.0161922
939.280	0.0162701
939.358	0.0162310
939.436	0.0163348
939.514	0.0162047
939.592	0.0161319
939.670	0.0161344
939.748	0.0162776
939.826	0.0161930
939.905	0.0161835
939.983	0.0163237
940.061	0.0163304
940.139	0.0163025
940.217	0.0162188
940.295	0.0164153
940.373	0.0164620
940.451	0.0165237
940.530	0.0164140
940.608	0.0163204
940.686	0.0164327
940.764	0.0163663
940.842	0.0165149
940.920	0.0163779
940.998	0.0164197
941.076	0.0164050
941.155	0.0164553
941.233	0.0162663
941.311	0.0162172
941.389	0.0163025
941.467	0.0163570
941.545	0.0163164
941.623	0.0162643
941.701	0.0162698
941.780	0.0161078
941.858	0.0162937
941.936	0.0162865
942.014	0.0162037
942.092	0.0162698
942.170	0.0161556
942.248	0.0161957
942.326	0.0162493
942.405	0.0162161
942.483	0.0162314
942.561	0.0161349
942.639	0.0162022
942.717	0.0161169
942.795	0.0161503
942.873	0.0161938
942.951	0.0163519
943.030	0.0162392
943.108	0.0162022
943.186	0.0161620
943.264	0.0161788
943.342	0.0162164
943.420	0.0161669
943.498	0.0160228
943.576	0.0161914
943.655	0.0161693
943.733	0.0161356
943.811	0.0160877
943.889	0.0162022
943.967	0.0162269
944.045	0.0161282
944.123	0.0160989
944.201	0.0161143
944.280	0.0160465
944.358	0.0160884
944.436	0.0160323
944.514	0.0161475
944.592	0.0160815
944.670	0.0160851
944.748	0.0162536
944.826	0.0161337
944.905	0.0160364
944.983	0.0161018
945.061	0.0161501
945.139	0.0161810
945.217	0.0161719
945.295	0.0160633
945.373	0.0162091
945.451	0.0160966
945.530	0.0162202
945.608	0.0161015
945.686	0.0162576
945.764	0.0162337
945.842	0.0162317
945.920	0.0160868
945.998	0.0161128
946.076	0.0162192
946.155	0.0162996
946.233	0.0161559
946.311	0.0161533
946.389	0.0160770
946.467	0.0160864
946.545	0.0161801
946.623	0.0161939
946.701	0.0160503
946.780	0.0160619
946.858	0.0162226
946.936	0.0160994
947.014	0.0162779
947.092	0.0162370
947.170	0.0161652
947.248	0.0161646
947.326	0.0162167
947.405	0.0161947
947.483	0.0162791
947.561	0.0162603
947.639	0.0162244
947.717	0.0162286
947.795	0.0163618
947.873	0.0162552
947.951	0.0162251
948.030	0.0162935
948.108	0.0163807
948.186	0.0162447
948.264	0.0163143
948.342	0.0163272
948.420	0.0161277
948.498	0.0162210
948.576	0.0161620
948.655	0.0161357
948.733	0.0162406
948.811	0.0162762
948.889	0.0162257
948.967	0.0161270
949.045	0.0161583
949.123	0.0161575
949.201	0.0162594
949.280	0.0162239
949.358	0.0161880
949.436	0.0161255
949.514	0.0162489
949.592	0.0161115
949.670	0.0160818
949.748	0.0161295
949.826	0.0160902
949.905	0.0162373
949.983	0.0161215
950.061	0.0160649
950.139	0.0160783
950.217	0.0160748
950.295	0.0161446
950.373	0.0161755
950.451	0.0160209
950.530	0.0159103
950.608	0.0160137
950.686	0.0160666
950.764	0.0158718
950.842	0.0160519
950.920	0.0160587
950.998	0.0160792
951.076	0.0160403
951.155	0.0161637
951.233	0.0161076
951.311	0.0160864
951.389	0.0160926
951.467	0.0161597
951.545	0.0161144
951.623	0.0161385
951.701	0.0162175
951.780	0.0160844
951.858	0.0160441
951.936	0.0160538
952.014	0.0162731
952.092	0.0161533
952.170	0.0162949
952.248	0.0161339
952.326	0.0160664
952.405	0.0161182
952.483	0.0162643
952.561	0.0162011
952.639	0.0161804
952.717	0.0161397
952.795	0.0161230
952.873	0.0161922
952.951	0.0162679
953.030	0.0161840
953.108	0.0161851
953.186	0.0162394
953.264	0.0162001
953.342	0.0161676
953.420	0.0162650
953.498	0.0162395
953.576	0.0162874
953.655	0.0163091
953.733	0.0161854
953.811	0.0160728
953.889	0.0161723
953.967	0.0160873
954.045	0.0162440
954.123	0.0162464
954.201	0.0162975
954.280	0.0162373
954.358	0.0161507
954.436	0.0162182
954.514	0.0162151
954.592	0.0162906
954.670	0.0162173
954.748	0.0162083
954.826	0.0161998
954.905	0.0161874
954.983	0.0162814
955.061	0.0163440
955.139	0.0162408
955.217	0.0162846
955.295	0.0163130
955.373	0.0162271
955.451	0.0162743
955.530	0.0163101
955.608	0.0161821
955.686	0.0162688
955.764	0.0162961
955.842	0.0161911
955.920	0.0163336
955.998	0.0162267
956.076	0.0163054
956.155	0.0161766
956.233	0.0163847
956.311	0.0163130
956.389	0.0162440
956.467	0.0162617
956.545	0.0163066
956.623	0.0163186
956.701	0.0162843
956.780	0.0163477
956.858	0.0163348
956.936	0.0162730
957.014	0.0163204
957.092	0.0164619
957.170	0.0163135
957.248	0.0162767
957.326	0.0163988
957.405	0.0163480
957.483	0.0164204
957.561	0.0163014
957.639	0.0162737
957.717	0.0162555
957.795	0.0163806
957.873	0.0161124
957.951	0.0162553
958.030	0.0163028
958.108	0.0161810
958.186	0.0161904
958.264	0.0161872
958.342	0.0162400
958.420	0.0162082
958.498	0.0161828
958.576	0.0162340
958.655	0.0162243
958.733	0.0161365
958.811	0.0162411
958.889	0.0162309
958.967	0.0161451
959.045	0.0161140
959.123	0.0163601
959.201	0.0163405
959.280	0.0160703
959.358	0.0162411
959.436	0.0162849
959.514	0.0161760
959.592	0.0162157
959.670	0.0162647
959.748	0.0161931
959.826	0.0161661
959.905	0.0162138
