05/17/2022	17:01:19	Ver.	4.1	UNKNOWN
Optical Delay	639.982744	Delta X		0.078125	Sweeps	1	Scan Rate	0/0
Coordinates	Axis 1	NaN	Axis 2	NaN	Axis 3	NaN	Axis 4	NaN	Axis 5	NaN	Axis 6	0.000000
TX Power	0.000000	RX Power	0.000000

639.983	0.0163545
640.061	0.0164405
640.139	0.0164828
640.217	0.0164957
640.295	0.0164178
640.373	0.0163699
640.451	0.0164571
640.530	0.0164013
640.608	0.0164675
640.686	0.0163849
640.764	0.0163043
640.842	0.0164803
640.920	0.0163303
640.998	0.0164159
641.076	0.0164429
641.155	0.0163847
641.233	0.0164497
641.311	0.0163551
641.389	0.0164622
641.467	0.0163750
641.545	0.0164029
641.623	0.0164767
641.701	0.0164322
641.780	0.0163705
641.858	0.0164180
641.936	0.0166476
642.014	0.0165739
642.092	0.0165903
642.170	0.0164563
642.248	0.0165815
642.326	0.0165104
642.405	0.0165154
642.483	0.0166939
642.561	0.0165228
642.639	0.0165661
642.717	0.0164782
642.795	0.0165954
642.873	0.0166879
642.951	0.0165654
643.030	0.0165056
643.108	0.0164321
643.186	0.0165335
643.264	0.0165274
643.342	0.0163869
643.420	0.0165453
643.498	0.0164475
643.576	0.0164534
643.655	0.0164181
643.733	0.0165063
643.811	0.0164138
643.889	0.0163907
643.967	0.0163081
644.045	0.0164681
644.123	0.0163342
644.201	0.0162245
644.280	0.0162445
644.358	0.0163461
644.436	0.0164327
644.514	0.0162134
644.592	0.0162823
644.670	0.0163799
644.748	0.0164554
644.826	0.0162952
644.905	0.0164827
644.983	0.0164087
645.061	0.0163992
645.139	0.0165004
645.217	0.0163566
645.295	0.0164536
645.373	0.0163478
645.451	0.0164799
645.530	0.0162939
645.608	0.0162270
645.686	0.0163216
645.764	0.0164213
645.842	0.0164870
645.920	0.0163077
645.998	0.0163065
646.076	0.0163528
646.155	0.0161588
646.233	0.0162355
646.311	0.0162044
646.389	0.0162077
646.467	0.0161097
646.545	0.0161781
646.623	0.0162949
646.701	0.0162881
646.780	0.0162293
646.858	0.0161855
646.936	0.0162587
647.014	0.0161352
647.092	0.0162717
647.170	0.0162552
647.248	0.0163608
647.326	0.0162975
647.405	0.0161954
647.483	0.0163040
647.561	0.0162831
647.639	0.0163665
647.717	0.0163912
647.795	0.0162908
647.873	0.0163014
647.951	0.0163633
648.030	0.0163293
648.108	0.0161984
648.186	0.0162136
648.264	0.0163409
648.342	0.0163525
648.420	0.0162534
648.498	0.0161408
648.576	0.0163067
648.655	0.0162172
648.733	0.0162460
648.811	0.0162756
648.889	0.0162788
648.967	0.0163250
649.045	0.0162804
649.123	0.0163666
649.201	0.0162765
649.280	0.0163929
649.358	0.0162830
649.436	0.0163464
649.514	0.0163839
649.592	0.0164752
649.670	0.0164291
649.748	0.0163179
649.826	0.0162688
649.905	0.0163796
649.983	0.0163982
650.061	0.0164050
650.139	0.0165881
650.217	0.0163601
650.295	0.0164205
650.373	0.0164071
650.451	0.0164127
650.530	0.0162553
650.608	0.0163727
650.686	0.0163551
650.764	0.0161787
650.842	0.0162706
650.920	0.0163745
650.998	0.0164805
651.076	0.0163918
651.155	0.0164140
651.233	0.0163467
651.311	0.0162233
651.389	0.0164058
651.467	0.0164207
651.545	0.0163593
651.623	0.0163874
651.701	0.0163536
651.780	0.0162846
651.858	0.0163546
651.936	0.0163481
652.014	0.0163318
652.092	0.0163895
652.170	0.0163155
652.248	0.0162529
652.326	0.0165155
652.405	0.0164267
652.483	0.0164391
652.561	0.0163619
652.639	0.0163321
652.717	0.0164803
652.795	0.0165141
652.873	0.0165398
652.951	0.0164644
653.030	0.0163530
653.108	0.0162938
653.186	0.0162878
653.264	0.0164142
653.342	0.0164191
653.420	0.0164103
653.498	0.0163273
653.576	0.0162234
653.655	0.0163439
653.733	0.0164218
653.811	0.0164402
653.889	0.0162803
653.967	0.0163522
654.045	0.0164250
654.123	0.0163424
654.201	0.0163918
654.280	0.0163501
654.358	0.0163363
654.436	0.0162692
654.514	0.0163732
654.592	0.0164570
654.670	0.0164644
654.748	0.0162850
654.826	0.0163845
654.905	0.0165379
654.983	0.0163092
655.061	0.0164289
655.139	0.0162986
655.217	0.0165282
655.295	0.0164125
655.373	0.0163838
655.451	0.0163418
655.530	0.0163990
655.608	0.0163142
655.686	0.0163802
655.764	0.0163410
655.842	0.0162544
655.920	0.0162418
655.998	0.0162067
656.076	0.0162395
656.155	0.0164083
656.233	0.0162556
656.311	0.0161253
656.389	0.0162202
656.467	0.0164193
656.545	0.0163261
656.623	0.0163781
656.701	0.0162562
656.780	0.0163200
656.858	0.0163483
656.936	0.0163686
657.014	0.0162208
657.092	0.0164129
657.170	0.0164127
657.248	0.0163312
657.326	0.0163383
657.405	0.0163134
657.483	0.0163223
657.561	0.0163587
657.639	0.0162231
657.717	0.0163747
657.795	0.0164093
657.873	0.0163940
657.951	0.0163605
658.030	0.0163062
658.108	0.0162704
658.186	0.0163447
658.264	0.0163612
658.342	0.0164196
658.420	0.0163459
658.498	0.0163839
658.576	0.0164266
658.655	0.0164115
658.733	0.0164354
658.811	0.0164063
658.889	0.0164520
658.967	0.0164851
659.045	0.0164921
659.123	0.0164185
659.201	0.0164096
659.280	0.0163844
659.358	0.0163091
659.436	0.0164213
659.514	0.0163583
659.592	0.0163736
659.670	0.0165125
659.748	0.0162505
659.826	0.0163509
659.905	0.0163422
659.983	0.0164159
660.061	0.0163603
660.139	0.0162918
660.217	0.0162411
660.295	0.0164317
660.373	0.0161589
660.451	0.0161880
660.530	0.0164139
660.608	0.0164675
660.686	0.0163261
660.764	0.0164629
660.842	0.0163196
660.920	0.0163814
660.998	0.0165326
661.076	0.0164143
661.155	0.0164945
661.233	0.0163275
661.311	0.0164773
661.389	0.0164945
661.467	0.0165405
661.545	0.0163668
661.623	0.0164426
661.701	0.0164256
661.780	0.0164859
661.858	0.0165382
661.936	0.0165160
662.014	0.0163950
662.092	0.0162385
662.170	0.0165240
662.248	0.0162906
662.326	0.0164526
662.405	0.0163391
662.483	0.0163306
662.561	0.0163000
662.639	0.0163003
662.717	0.0162557
662.795	0.0162308
662.873	0.0162504
662.951	0.0162426
663.030	0.0161865
663.108	0.0162000
663.186	0.0162841
663.264	0.0162000
663.342	0.0161357
663.420	0.0160685
663.498	0.0163262
663.576	0.0161137
663.655	0.0161774
663.733	0.0160758
663.811	0.0161537
663.889	0.0161958
663.967	0.0162591
664.045	0.0162422
664.123	0.0163324
664.201	0.0164462
664.280	0.0164333
664.358	0.0165432
664.436	0.0163689
664.514	0.0164570
664.592	0.0165133
664.670	0.0165205
664.748	0.0166113
664.826	0.0163586
664.905	0.0163675
664.983	0.0164202
665.061	0.0164448
665.139	0.0164716
665.217	0.0163350
665.295	0.0162456
665.373	0.0162708
665.451	0.0162632
665.530	0.0161041
665.608	0.0160052
665.686	0.0161465
665.764	0.0161319
665.842	0.0161034
665.920	0.0161516
665.998	0.0161253
666.076	0.0161148
666.155	0.0159947
666.233	0.0160995
666.311	0.0160677
666.389	0.0160250
666.467	0.0161559
666.545	0.0162579
666.623	0.0160840
666.701	0.0162878
666.780	0.0163159
666.858	0.0162037
666.936	0.0162978
667.014	0.0165077
667.092	0.0164610
667.170	0.0165929
667.248	0.0166317
667.326	0.0165734
667.405	0.0167085
667.483	0.0167429
667.561	0.0167297
667.639	0.0167363
667.717	0.0166759
667.795	0.0166550
667.873	0.0167455
667.951	0.0167047
668.030	0.0164044
668.108	0.0166600
668.186	0.0164172
668.264	0.0162739
668.342	0.0163432
668.420	0.0163908
668.498	0.0162267
668.576	0.0160942
668.655	0.0158639
668.733	0.0158475
668.811	0.0158105
668.889	0.0157531
668.967	0.0157118
669.045	0.0158199
669.123	0.0156598
669.201	0.0156711
669.280	0.0157076
669.358	0.0156723
669.436	0.0157064
669.514	0.0158740
669.592	0.0159617
669.670	0.0158987
669.748	0.0162035
669.826	0.0162200
669.905	0.0162837
669.983	0.0164809
670.061	0.0166262
670.139	0.0166234
670.217	0.0169067
670.295	0.0169875
670.373	0.0168346
670.451	0.0170450
670.530	0.0170692
670.608	0.0170172
670.686	0.0171406
670.764	0.0170966
670.842	0.0172191
670.920	0.0170382
670.998	0.0170712
671.076	0.0168806
671.155	0.0167992
671.233	0.0167370
671.311	0.0164933
671.389	0.0164967
671.467	0.0164246
671.545	0.0162996
671.623	0.0159905
671.701	0.0160630
671.780	0.0159048
671.858	0.0159100
671.936	0.0157352
672.014	0.0156958
672.092	0.0156674
672.170	0.0158128
672.248	0.0157528
672.326	0.0156997
672.405	0.0157177
672.483	0.0158966
672.561	0.0158849
672.639	0.0157920
672.717	0.0160690
672.795	0.0161490
672.873	0.0161322
672.951	0.0162285
673.030	0.0162566
673.108	0.0163296
673.186	0.0166064
673.264	0.0165594
673.342	0.0166442
673.420	0.0166699
673.498	0.0165521
673.576	0.0166486
673.655	0.0167625
673.733	0.0167327
673.811	0.0166812
673.889	0.0168369
673.967	0.0167651
674.045	0.0168176
674.123	0.0167665
674.201	0.0168647
674.280	0.0167847
674.358	0.0167625
674.436	0.0167882
674.514	0.0168908
674.592	0.0168256
674.670	0.0168433
674.748	0.0168748
674.826	0.0167124
674.905	0.0168513
674.983	0.0168624
675.061	0.0168199
675.139	0.0167343
675.217	0.0165714
675.295	0.0166012
675.373	0.0164858
675.451	0.0162808
675.530	0.0161414
675.608	0.0160835
675.686	0.0160049
675.764	0.0158198
675.842	0.0158188
675.920	0.0156808
675.998	0.0155726
676.076	0.0154119
676.155	0.0154460
676.233	0.0155075
676.311	0.0153539
676.389	0.0154243
676.467	0.0155228
676.545	0.0156513
676.623	0.0155870
676.701	0.0156952
676.780	0.0158614
676.858	0.0160038
676.936	0.0161762
677.014	0.0163061
677.092	0.0165022
677.170	0.0165711
677.248	0.0166930
677.326	0.0168951
677.405	0.0172196
677.483	0.0172478
677.561	0.0173174
677.639	0.0173643
677.717	0.0173918
677.795	0.0172775
677.873	0.0174133
677.951	0.0173247
678.030	0.0171874
678.108	0.0171284
678.186	0.0171404
678.264	0.0167617
678.342	0.0167897
678.420	0.0165147
678.498	0.0164024
678.576	0.0161076
678.655	0.0160846
678.733	0.0161442
678.811	0.0157259
678.889	0.0153510
678.967	0.0154718
679.045	0.0153796
679.123	0.0153187
679.201	0.0153271
679.280	0.0152792
679.358	0.0152820
679.436	0.0151128
679.514	0.0153159
679.592	0.0154655
679.670	0.0154510
679.748	0.0158035
679.826	0.0160608
679.905	0.0162082
679.983	0.0161302
680.061	0.0163246
680.139	0.0166499
680.217	0.0167634
680.295	0.0168513
680.373	0.0168083
680.451	0.0171968
680.530	0.0172399
680.608	0.0173031
680.686	0.0172159
680.764	0.0174021
680.842	0.0173202
680.920	0.0172449
680.998	0.0172915
681.076	0.0172887
681.155	0.0171925
681.233	0.0169603
681.311	0.0169541
681.389	0.0168324
681.467	0.0165445
681.545	0.0164954
681.623	0.0165163
681.701	0.0162551
681.780	0.0161364
681.858	0.0161034
681.936	0.0160375
682.014	0.0159761
682.092	0.0156831
682.170	0.0157771
682.248	0.0157024
682.326	0.0155693
682.405	0.0156326
682.483	0.0156848
682.561	0.0156106
682.639	0.0155303
682.717	0.0155468
682.795	0.0156144
682.873	0.0156267
682.951	0.0156709
683.030	0.0158206
683.108	0.0158746
683.186	0.0158387
683.264	0.0157701
683.342	0.0157242
683.420	0.0159794
683.498	0.0159828
683.576	0.0158556
683.655	0.0158485
683.733	0.0158156
683.811	0.0160880
683.889	0.0158058
683.967	0.0159046
684.045	0.0159282
684.123	0.0159199
684.201	0.0161026
684.280	0.0161177
684.358	0.0162396
684.436	0.0161774
684.514	0.0163425
684.592	0.0164791
684.670	0.0166022
684.748	0.0165071
684.826	0.0167840
684.905	0.0169626
684.983	0.0170385
685.061	0.0170547
685.139	0.0171408
685.217	0.0173536
685.295	0.0174275
685.373	0.0174583
685.451	0.0174562
685.530	0.0173412
685.608	0.0173701
685.686	0.0175191
685.764	0.0173576
685.842	0.0172684
685.920	0.0172743
685.998	0.0171236
686.076	0.0170515
686.155	0.0172505
686.233	0.0169868
686.311	0.0167639
686.389	0.0167043
686.467	0.0167110
686.545	0.0165102
686.623	0.0162075
686.701	0.0162302
686.780	0.0161215
686.858	0.0159979
686.936	0.0158069
687.014	0.0154448
687.092	0.0154960
687.170	0.0154063
687.248	0.0152209
687.326	0.0150540
687.405	0.0148496
687.483	0.0149536
687.561	0.0148571
687.639	0.0148895
687.717	0.0148494
687.795	0.0148610
687.873	0.0149158
687.951	0.0150293
688.030	0.0150171
688.108	0.0152188
688.186	0.0151978
688.264	0.0154269
688.342	0.0156676
688.420	0.0155116
688.498	0.0158687
688.576	0.0157889
688.655	0.0159104
688.733	0.0159631
688.811	0.0161228
688.889	0.0162496
688.967	0.0163766
689.045	0.0164761
689.123	0.0163748
689.201	0.0164582
689.280	0.0165804
689.358	0.0166515
689.436	0.0166850
689.514	0.0167214
689.592	0.0167532
689.670	0.0169414
689.748	0.0169180
689.826	0.0169940
689.905	0.0169772
689.983	0.0172469
690.061	0.0171904
690.139	0.0172446
690.217	0.0172334
690.295	0.0174977
690.373	0.0173864
690.451	0.0174892
690.530	0.0174116
690.608	0.0173405
690.686	0.0173417
690.764	0.0173973
690.842	0.0173324
690.920	0.0173347
690.998	0.0170720
691.076	0.0169175
691.155	0.0169495
691.233	0.0167674
691.311	0.0166040
691.389	0.0165312
691.467	0.0162813
691.545	0.0160489
691.623	0.0159116
691.701	0.0157685
691.780	0.0156452
691.858	0.0155947
691.936	0.0153490
692.014	0.0153119
692.092	0.0152061
692.170	0.0151010
692.248	0.0149991
692.326	0.0151979
692.405	0.0150880
692.483	0.0151279
692.561	0.0153012
692.639	0.0152998
692.717	0.0155106
692.795	0.0157491
692.873	0.0157133
692.951	0.0158671
693.030	0.0159372
693.108	0.0160930
693.186	0.0162467
693.264	0.0163148
693.342	0.0162906
693.420	0.0162968
693.498	0.0165113
693.576	0.0165527
693.655	0.0164736
693.733	0.0161356
693.811	0.0161384
693.889	0.0162119
693.967	0.0161248
694.045	0.0161546
694.123	0.0160397
694.201	0.0157471
694.280	0.0156825
694.358	0.0156868
694.436	0.0155070
694.514	0.0155647
694.592	0.0156331
694.670	0.0154373
694.748	0.0154529
694.826	0.0155299
694.905	0.0155859
694.983	0.0155108
695.061	0.0154749
695.139	0.0156990
695.217	0.0158595
695.295	0.0159578
695.373	0.0161120
695.451	0.0163205
695.530	0.0164616
695.608	0.0167085
695.686	0.0167520
695.764	0.0169218
695.842	0.0170364
695.920	0.0171729
695.998	0.0172677
696.076	0.0174025
696.155	0.0176402
696.233	0.0175279
696.311	0.0176816
696.389	0.0177350
696.467	0.0176258
696.545	0.0178704
696.623	0.0177624
696.701	0.0176327
696.780	0.0176576
696.858	0.0176521
696.936	0.0174184
697.014	0.0173762
697.092	0.0171587
697.170	0.0171469
697.248	0.0169290
697.326	0.0166856
697.405	0.0166244
697.483	0.0164430
697.561	0.0163351
697.639	0.0162135
697.717	0.0160181
697.795	0.0159306
697.873	0.0157878
697.951	0.0156594
698.030	0.0155817
698.108	0.0154183
698.186	0.0154290
698.264	0.0154755
698.342	0.0153864
698.420	0.0153474
698.498	0.0151875
698.576	0.0153279
698.655	0.0153471
698.733	0.0153881
698.811	0.0155033
698.889	0.0155695
698.967	0.0156266
699.045	0.0156058
699.123	0.0158549
699.201	0.0158424
699.280	0.0158446
699.358	0.0158904
699.436	0.0161121
699.514	0.0159435
699.592	0.0160022
699.670	0.0160226
699.748	0.0160511
699.826	0.0162580
699.905	0.0161647
699.983	0.0161240
700.061	0.0162991
700.139	0.0162889
700.217	0.0162268
700.295	0.0162392
700.373	0.0162953
700.451	0.0164080
700.530	0.0164143
700.608	0.0163918
700.686	0.0164592
700.764	0.0165517
700.842	0.0166911
700.920	0.0166628
700.998	0.0166378
701.076	0.0168967
701.155	0.0170297
701.233	0.0171416
701.311	0.0171265
701.389	0.0173855
701.467	0.0173720
701.545	0.0174248
701.623	0.0175131
701.701	0.0175577
701.780	0.0173725
701.858	0.0175130
701.936	0.0174180
702.014	0.0174358
702.092	0.0174202
702.170	0.0172887
702.248	0.0171440
702.326	0.0170589
702.405	0.0169923
702.483	0.0167767
702.561	0.0167114
702.639	0.0165136
702.717	0.0164521
702.795	0.0163364
702.873	0.0161796
702.951	0.0161364
703.030	0.0160869
703.108	0.0161084
703.186	0.0159051
703.264	0.0157547
703.342	0.0156508
703.420	0.0157153
703.498	0.0156877
703.576	0.0155598
703.655	0.0156707
703.733	0.0156516
703.811	0.0157045
703.889	0.0157781
703.967	0.0158025
704.045	0.0158704
704.123	0.0160175
704.201	0.0159477
704.280	0.0159807
704.358	0.0160459
704.436	0.0163816
704.514	0.0163346
704.592	0.0162283
704.670	0.0162567
704.748	0.0163068
704.826	0.0163223
704.905	0.0162661
704.983	0.0161486
705.061	0.0160980
705.139	0.0160455
705.217	0.0160110
705.295	0.0158794
705.373	0.0159110
705.451	0.0157510
705.530	0.0158825
705.608	0.0159672
705.686	0.0159724
705.764	0.0160021
705.842	0.0159920
705.920	0.0158788
705.998	0.0161238
706.076	0.0161217
706.155	0.0163754
706.233	0.0164271
706.311	0.0165749
706.389	0.0166071
706.467	0.0167101
706.545	0.0169113
706.623	0.0168671
706.701	0.0168819
706.780	0.0168596
706.858	0.0169363
706.936	0.0170475
707.014	0.0169991
707.092	0.0170151
707.170	0.0171483
707.248	0.0170872
707.326	0.0170441
707.405	0.0169925
707.483	0.0169186
707.561	0.0169810
707.639	0.0168866
707.717	0.0168964
707.795	0.0168721
707.873	0.0167391
707.951	0.0164021
708.030	0.0164742
708.108	0.0164452
708.186	0.0162901
708.264	0.0161066
708.342	0.0160622
708.420	0.0159465
708.498	0.0159305
708.576	0.0155905
708.655	0.0157169
708.733	0.0154647
708.811	0.0154548
708.889	0.0154218
708.967	0.0152670
709.045	0.0153365
709.123	0.0151897
709.201	0.0151800
709.280	0.0152561
709.358	0.0150957
709.436	0.0150331
709.514	0.0152505
709.592	0.0153348
709.670	0.0152387
709.748	0.0154377
709.826	0.0157152
709.905	0.0156519
709.983	0.0158334
710.061	0.0161243
710.139	0.0162325
710.217	0.0165422
710.295	0.0166087
710.373	0.0168768
710.451	0.0170805
710.530	0.0172319
710.608	0.0174291
710.686	0.0174996
710.764	0.0175742
710.842	0.0174985
710.920	0.0175003
710.998	0.0175989
711.076	0.0173936
711.155	0.0173294
711.233	0.0172896
711.311	0.0172186
711.389	0.0170358
711.467	0.0165987
711.545	0.0164677
711.623	0.0162737
711.701	0.0161900
711.780	0.0160155
711.858	0.0158348
711.936	0.0156564
712.014	0.0154956
712.092	0.0155245
712.170	0.0154379
712.248	0.0154916
712.326	0.0154797
712.405	0.0155582
712.483	0.0154483
712.561	0.0155793
712.639	0.0157199
712.717	0.0158506
712.795	0.0158456
712.873	0.0160993
712.951	0.0161304
713.030	0.0163136
713.108	0.0164170
713.186	0.0165862
713.264	0.0165306
713.342	0.0164774
713.420	0.0166570
713.498	0.0167078
713.576	0.0167543
713.655	0.0166445
713.733	0.0165997
713.811	0.0165692
713.889	0.0165337
713.967	0.0165406
714.045	0.0165063
714.123	0.0164626
714.201	0.0162574
714.280	0.0164124
714.358	0.0162271
714.436	0.0161740
714.514	0.0161148
714.592	0.0162573
714.670	0.0162439
714.748	0.0160397
714.826	0.0161781
714.905	0.0161223
714.983	0.0162193
715.061	0.0161403
715.139	0.0160368
715.217	0.0160584
715.295	0.0160993
715.373	0.0160147
715.451	0.0161365
715.530	0.0161027
715.608	0.0160509
715.686	0.0162831
715.764	0.0162061
715.842	0.0162376
715.920	0.0161646
715.998	0.0162453
716.076	0.0162302
716.155	0.0162718
716.233	0.0161507
716.311	0.0160381
716.389	0.0161053
716.467	0.0160696
716.545	0.0160925
716.623	0.0161534
716.701	0.0162653
716.780	0.0160890
716.858	0.0161417
716.936	0.0163975
717.014	0.0163068
717.092	0.0163685
717.170	0.0163858
717.248	0.0164338
717.326	0.0165839
717.405	0.0165646
717.483	0.0166970
717.561	0.0168829
717.639	0.0168651
717.717	0.0168273
717.795	0.0168980
717.873	0.0169211
717.951	0.0169005
718.030	0.0169827
718.108	0.0170042
718.186	0.0167616
718.264	0.0167972
718.342	0.0166873
718.420	0.0168007
718.498	0.0164803
718.576	0.0165266
718.655	0.0162437
718.733	0.0162715
718.811	0.0162414
718.889	0.0162894
718.967	0.0161332
719.045	0.0161795
719.123	0.0159706
719.201	0.0160145
719.280	0.0160439
719.358	0.0160647
719.436	0.0161646
719.514	0.0161518
719.592	0.0160436
719.670	0.0161755
719.748	0.0161241
719.826	0.0161517
719.905	0.0161460
719.983	0.0161562
720.061	0.0161951
720.139	0.0162531
720.217	0.0161842
720.295	0.0163703
720.373	0.0161338
720.451	0.0160727
720.530	0.0161751
720.608	0.0161175
720.686	0.0162012
720.764	0.0160581
720.842	0.0160638
720.920	0.0161365
720.998	0.0161002
721.076	0.0162009
721.155	0.0161833
721.233	0.0163152
721.311	0.0164098
721.389	0.0164043
721.467	0.0165022
721.545	0.0164729
721.623	0.0165218
721.701	0.0166182
721.780	0.0165321
721.858	0.0165469
721.936	0.0165831
722.014	0.0167378
722.092	0.0166890
722.170	0.0165339
722.248	0.0164272
722.326	0.0165405
722.405	0.0165350
722.483	0.0163129
722.561	0.0163439
722.639	0.0161388
722.717	0.0161155
722.795	0.0160818
722.873	0.0161491
722.951	0.0161431
723.030	0.0160462
723.108	0.0160087
723.186	0.0160420
723.264	0.0159245
723.342	0.0160327
723.420	0.0160925
723.498	0.0160449
723.576	0.0160886
723.655	0.0162642
723.733	0.0162652
723.811	0.0162670
723.889	0.0163260
723.967	0.0164708
724.045	0.0163227
724.123	0.0165051
724.201	0.0165656
724.280	0.0165737
724.358	0.0165886
724.436	0.0166885
724.514	0.0165794
724.592	0.0167097
724.670	0.0168014
724.748	0.0168185
724.826	0.0168876
724.905	0.0168938
724.983	0.0168388
725.061	0.0168823
725.139	0.0167472
725.217	0.0168376
725.295	0.0168369
725.373	0.0168139
725.451	0.0167053
725.530	0.0165720
725.608	0.0165656
725.686	0.0165597
725.764	0.0166167
725.842	0.0163890
725.920	0.0164184
725.998	0.0164371
726.076	0.0164188
726.155	0.0165717
726.233	0.0164046
726.311	0.0163359
726.389	0.0163677
726.467	0.0164731
726.545	0.0164571
726.623	0.0163318
726.701	0.0163587
726.780	0.0165179
726.858	0.0165116
726.936	0.0164006
727.014	0.0162564
727.092	0.0162512
727.170	0.0163459
727.248	0.0162564
727.326	0.0162120
727.405	0.0162423
727.483	0.0162374
727.561	0.0161955
727.639	0.0162749
727.717	0.0161981
727.795	0.0163367
727.873	0.0163562
727.951	0.0162404
728.030	0.0163227
728.108	0.0163866
728.186	0.0165314
728.264	0.0165514
728.342	0.0165338
728.420	0.0165553
728.498	0.0166042
728.576	0.0164254
728.655	0.0165406
728.733	0.0165331
728.811	0.0165104
728.889	0.0163444
728.967	0.0164701
729.045	0.0165028
729.123	0.0161810
729.201	0.0163854
729.280	0.0163807
729.358	0.0162836
729.436	0.0161080
729.514	0.0162364
729.592	0.0161739
729.670	0.0162443
729.748	0.0163001
729.826	0.0161462
729.905	0.0160816
729.983	0.0162057
730.061	0.0161327
730.139	0.0162596
730.217	0.0162064
730.295	0.0163244
730.373	0.0161790
730.451	0.0163493
730.530	0.0162331
730.608	0.0163719
730.686	0.0162476
730.764	0.0162944
730.842	0.0164242
730.920	0.0163661
730.998	0.0163280
731.076	0.0164120
731.155	0.0163717
731.233	0.0162932
731.311	0.0161912
731.389	0.0162928
731.467	0.0163723
731.545	0.0161248
731.623	0.0161894
731.701	0.0162687
731.780	0.0161469
731.858	0.0161571
731.936	0.0161246
732.014	0.0161313
732.092	0.0161336
732.170	0.0162917
732.248	0.0162855
732.326	0.0163348
732.405	0.0163203
732.483	0.0164031
732.561	0.0164785
732.639	0.0163854
732.717	0.0166510
732.795	0.0166832
732.873	0.0165889
732.951	0.0165570
733.030	0.0166403
733.108	0.0167582
733.186	0.0168851
733.264	0.0167236
733.342	0.0166659
733.420	0.0166016
733.498	0.0166229
733.576	0.0166502
733.655	0.0164710
733.733	0.0164721
733.811	0.0161546
733.889	0.0161867
733.967	0.0161757
734.045	0.0158775
734.123	0.0160283
734.201	0.0159245
734.280	0.0156883
734.358	0.0157574
734.436	0.0158247
734.514	0.0158533
734.592	0.0158431
734.670	0.0157919
734.748	0.0159023
734.826	0.0157513
734.905	0.0160480
734.983	0.0162413
735.061	0.0162028
735.139	0.0162080
735.217	0.0161615
735.295	0.0162427
735.373	0.0163699
735.451	0.0165109
735.530	0.0164248
735.608	0.0164812
735.686	0.0165974
735.764	0.0165013
735.842	0.0164508
735.920	0.0163679
735.998	0.0165148
736.076	0.0163600
736.155	0.0163488
736.233	0.0164301
736.311	0.0163648
736.389	0.0163375
736.467	0.0163382
736.545	0.0162556
736.623	0.0163097
736.701	0.0161963
736.780	0.0162160
736.858	0.0162881
736.936	0.0162286
737.014	0.0162581
737.092	0.0163956
737.170	0.0163069
737.248	0.0161410
737.326	0.0161532
737.405	0.0163158
737.483	0.0163138
737.561	0.0162331
737.639	0.0163010
737.717	0.0161263
737.795	0.0161115
737.873	0.0161755
737.951	0.0162643
738.030	0.0162294
738.108	0.0162088
738.186	0.0161069
738.264	0.0161591
738.342	0.0161385
738.420	0.0160379
738.498	0.0161017
738.576	0.0158910
738.655	0.0159796
738.733	0.0159564
738.811	0.0160034
738.889	0.0159740
738.967	0.0159597
739.045	0.0157983
739.123	0.0159708
739.201	0.0161017
739.280	0.0159891
739.358	0.0159492
739.436	0.0162789
739.514	0.0163404
739.592	0.0164314
739.670	0.0164317
739.748	0.0165341
739.826	0.0167051
739.905	0.0166534
739.983	0.0168634
740.061	0.0168998
740.139	0.0169981
740.217	0.0169258
740.295	0.0169162
740.373	0.0168997
740.451	0.0170060
740.530	0.0168915
740.608	0.0168851
740.686	0.0167223
740.764	0.0167731
740.842	0.0166110
740.920	0.0166363
740.998	0.0165450
741.076	0.0164032
741.155	0.0165321
741.233	0.0164555
741.311	0.0161322
741.389	0.0162171
741.467	0.0163374
741.545	0.0162463
741.623	0.0161835
741.701	0.0161631
741.780	0.0161829
741.858	0.0163044
741.936	0.0161990
742.014	0.0162139
742.092	0.0161570
742.170	0.0162538
742.248	0.0162758
742.326	0.0162515
742.405	0.0163167
742.483	0.0162257
742.561	0.0161215
742.639	0.0162356
742.717	0.0162116
742.795	0.0163645
742.873	0.0163374
742.951	0.0163657
743.030	0.0163178
743.108	0.0163208
743.186	0.0162678
743.264	0.0162325
743.342	0.0162896
743.420	0.0164510
743.498	0.0164118
743.576	0.0163563
743.655	0.0163359
743.733	0.0164017
743.811	0.0163380
743.889	0.0162501
743.967	0.0162408
744.045	0.0162232
744.123	0.0164882
744.201	0.0164280
744.280	0.0164056
744.358	0.0161889
744.436	0.0162939
744.514	0.0163539
744.592	0.0163441
744.670	0.0163848
744.748	0.0162347
744.826	0.0163762
744.905	0.0164594
744.983	0.0162648
745.061	0.0164410
745.139	0.0165993
745.217	0.0165378
745.295	0.0164379
745.373	0.0164882
745.451	0.0165324
745.530	0.0163984
745.608	0.0166319
745.686	0.0165669
745.764	0.0164637
745.842	0.0165769
745.920	0.0164890
745.998	0.0163092
746.076	0.0163138
746.155	0.0164138
746.233	0.0164160
746.311	0.0164056
746.389	0.0164516
746.467	0.0164558
746.545	0.0164989
746.623	0.0166167
746.701	0.0165269
746.780	0.0163927
746.858	0.0166894
746.936	0.0165504
747.014	0.0165482
747.092	0.0165639
747.170	0.0166268
747.248	0.0167282
747.326	0.0166988
747.405	0.0165971
747.483	0.0165643
747.561	0.0165010
747.639	0.0164478
747.717	0.0164846
747.795	0.0166198
747.873	0.0164245
747.951	0.0164272
748.030	0.0164046
748.108	0.0163619
748.186	0.0163719
748.264	0.0163265
748.342	0.0165907
748.420	0.0164462
748.498	0.0162953
748.576	0.0162978
748.655	0.0163371
748.733	0.0163943
748.811	0.0163206
748.889	0.0163956
748.967	0.0163003
749.045	0.0163865
749.123	0.0163572
749.201	0.0163141
749.280	0.0163519
749.358	0.0162714
749.436	0.0162574
749.514	0.0162803
749.592	0.0161958
749.670	0.0163369
749.748	0.0163204
749.826	0.0162611
749.905	0.0163324
749.983	0.0162498
750.061	0.0164051
750.139	0.0162132
750.217	0.0164126
750.295	0.0163859
750.373	0.0163290
750.451	0.0165420
750.530	0.0164844
750.608	0.0164070
750.686	0.0165796
750.764	0.0166524
750.842	0.0165462
750.920	0.0166552
750.998	0.0165758
751.076	0.0165514
751.155	0.0164905
751.233	0.0164872
751.311	0.0165479
751.389	0.0163479
751.467	0.0163183
751.545	0.0163461
751.623	0.0163065
751.701	0.0161581
751.780	0.0161430
751.858	0.0161667
751.936	0.0161972
752.014	0.0162227
752.092	0.0161766
752.170	0.0161977
752.248	0.0162426
752.326	0.0162408
752.405	0.0162442
752.483	0.0163667
752.561	0.0162901
752.639	0.0162762
752.717	0.0164106
752.795	0.0163630
752.873	0.0163860
752.951	0.0162582
753.030	0.0162407
753.108	0.0161302
753.186	0.0163700
753.264	0.0163379
753.342	0.0162811
753.420	0.0162446
753.498	0.0162899
753.576	0.0162004
753.655	0.0160764
753.733	0.0161261
753.811	0.0160855
753.889	0.0160944
753.967	0.0159714
754.045	0.0160638
754.123	0.0160120
754.201	0.0160235
754.280	0.0161001
754.358	0.0161926
754.436	0.0160613
754.514	0.0160786
754.592	0.0161039
754.670	0.0162665
754.748	0.0161597
754.826	0.0162655
754.905	0.0164570
754.983	0.0163342
755.061	0.0163190
755.139	0.0164083
755.217	0.0163587
755.295	0.0165318
755.373	0.0163258
755.451	0.0164208
755.530	0.0164703
755.608	0.0164967
755.686	0.0163075
755.764	0.0164375
755.842	0.0164245
755.920	0.0163030
755.998	0.0163028
756.076	0.0163727
756.155	0.0162692
756.233	0.0161849
756.311	0.0162920
756.389	0.0162968
756.467	0.0161872
756.545	0.0163831
756.623	0.0161591
756.701	0.0161386
756.780	0.0160781
756.858	0.0160718
756.936	0.0161911
757.014	0.0161274
757.092	0.0162261
757.170	0.0160368
757.248	0.0162260
757.326	0.0161925
757.405	0.0161507
757.483	0.0162611
757.561	0.0161072
757.639	0.0161655
757.717	0.0163113
757.795	0.0161234
757.873	0.0160899
757.951	0.0162691
758.030	0.0162970
758.108	0.0160668
758.186	0.0161497
758.264	0.0161814
758.342	0.0163132
758.420	0.0163268
758.498	0.0162541
758.576	0.0163848
758.655	0.0164965
758.733	0.0164159
758.811	0.0163318
758.889	0.0164261
758.967	0.0163956
759.045	0.0163027
759.123	0.0162038
759.201	0.0161920
759.280	0.0160638
759.358	0.0160498
759.436	0.0160770
759.514	0.0162056
759.592	0.0159595
759.670	0.0159514
759.748	0.0160638
759.826	0.0160427
759.905	0.0159965
759.983	0.0161642
760.061	0.0161114
760.139	0.0161006
760.217	0.0161932
760.295	0.0162491
760.373	0.0163660
760.451	0.0162537
760.530	0.0163368
760.608	0.0164005
760.686	0.0163690
760.764	0.0163472
760.842	0.0162721
760.920	0.0162693
760.998	0.0163951
761.076	0.0163726
761.155	0.0162360
761.233	0.0163248
761.311	0.0162784
761.389	0.0162040
761.467	0.0160735
761.545	0.0161088
761.623	0.0161295
761.701	0.0161466
761.780	0.0161506
761.858	0.0161182
761.936	0.0161841
762.014	0.0160712
762.092	0.0162373
762.170	0.0162702
762.248	0.0162753
762.326	0.0162291
762.405	0.0162919
762.483	0.0162216
762.561	0.0162610
762.639	0.0162248
762.717	0.0164391
762.795	0.0164777
762.873	0.0165232
762.951	0.0165685
763.030	0.0163791
763.108	0.0164053
763.186	0.0163910
763.264	0.0163433
763.342	0.0164345
763.420	0.0163107
763.498	0.0163464
763.576	0.0164436
763.655	0.0162559
763.733	0.0163772
763.811	0.0164709
763.889	0.0163963
763.967	0.0164370
764.045	0.0166370
764.123	0.0165806
764.201	0.0165250
764.280	0.0163614
764.358	0.0164268
764.436	0.0163880
764.514	0.0163747
764.592	0.0163968
764.670	0.0163623
764.748	0.0163956
764.826	0.0163988
764.905	0.0162917
764.983	0.0163792
765.061	0.0162935
765.139	0.0161620
765.217	0.0161229
765.295	0.0163417
765.373	0.0162341
765.451	0.0162330
765.530	0.0162296
765.608	0.0163287
765.686	0.0161636
765.764	0.0162994
765.842	0.0163598
765.920	0.0163360
765.998	0.0162856
766.076	0.0163383
766.155	0.0163762
766.233	0.0163583
766.311	0.0162423
766.389	0.0163796
766.467	0.0164268
766.545	0.0163868
766.623	0.0162862
766.701	0.0163983
766.780	0.0162575
766.858	0.0163706
766.936	0.0163198
767.014	0.0162691
767.092	0.0162414
767.170	0.0162569
767.248	0.0162295
767.326	0.0162485
767.405	0.0162095
767.483	0.0161565
767.561	0.0161177
767.639	0.0162001
767.717	0.0161095
767.795	0.0162241
767.873	0.0162417
767.951	0.0163398
768.030	0.0162602
768.108	0.0162602
768.186	0.0164063
768.264	0.0164597
768.342	0.0164433
768.420	0.0163435
768.498	0.0165902
768.576	0.0164852
768.655	0.0163168
768.733	0.0164852
768.811	0.0165705
768.889	0.0164484
768.967	0.0163491
769.045	0.0163380
769.123	0.0162743
769.201	0.0164589
769.280	0.0164063
769.358	0.0163093
769.436	0.0162653
769.514	0.0162895
769.592	0.0163563
769.670	0.0164032
769.748	0.0165819
769.826	0.0164098
769.905	0.0163571
769.983	0.0165271
770.061	0.0165588
770.139	0.0165522
770.217	0.0166497
770.295	0.0166132
770.373	0.0165486
770.451	0.0166291
770.530	0.0166442
770.608	0.0167065
770.686	0.0167101
770.764	0.0166149
770.842	0.0166319
770.920	0.0165002
770.998	0.0165639
771.076	0.0165346
771.155	0.0165749
771.233	0.0164913
771.311	0.0164040
771.389	0.0163137
771.467	0.0162711
771.545	0.0163937
771.623	0.0162917
771.701	0.0162512
771.780	0.0163963
771.858	0.0163487
771.936	0.0163047
772.014	0.0162470
772.092	0.0162818
772.170	0.0163496
772.248	0.0161763
772.326	0.0163522
772.405	0.0163652
772.483	0.0163724
772.561	0.0162128
772.639	0.0161029
772.717	0.0162650
772.795	0.0162088
772.873	0.0163101
772.951	0.0161609
773.030	0.0160946
773.108	0.0162085
773.186	0.0161826
773.264	0.0163527
773.342	0.0160929
773.420	0.0162653
773.498	0.0164026
773.576	0.0164057
773.655	0.0165350
773.733	0.0164943
773.811	0.0164204
773.889	0.0164980
773.967	0.0165453
774.045	0.0165760
774.123	0.0163898
774.201	0.0164365
774.280	0.0164611
774.358	0.0164017
774.436	0.0164944
774.514	0.0164802
774.592	0.0163506
774.670	0.0164022
774.748	0.0165136
774.826	0.0162872
774.905	0.0162898
774.983	0.0164607
775.061	0.0162871
775.139	0.0161780
775.217	0.0160927
775.295	0.0162224
775.373	0.0161836
775.451	0.0162170
775.530	0.0161504
775.608	0.0160931
775.686	0.0161010
775.764	0.0161885
775.842	0.0161474
775.920	0.0161883
775.998	0.0162110
776.076	0.0163564
776.155	0.0162600
776.233	0.0162263
776.311	0.0162011
776.389	0.0162457
776.467	0.0161912
776.545	0.0161617
776.623	0.0161505
776.701	0.0162071
776.780	0.0163134
776.858	0.0163376
776.936	0.0160946
777.014	0.0162296
777.092	0.0161423
777.170	0.0161749
777.248	0.0161969
777.326	0.0162932
777.405	0.0163356
777.483	0.0162005
777.561	0.0163462
777.639	0.0163046
777.717	0.0161695
777.795	0.0162693
777.873	0.0164468
777.951	0.0164617
778.030	0.0164455
778.108	0.0164132
778.186	0.0162863
778.264	0.0163760
778.342	0.0162775
778.420	0.0162251
778.498	0.0162078
778.576	0.0161919
778.655	0.0161646
778.733	0.0161639
778.811	0.0161526
778.889	0.0162301
778.967	0.0161294
779.045	0.0160509
779.123	0.0160281
779.201	0.0160307
779.280	0.0160597
779.358	0.0159177
779.436	0.0159536
779.514	0.0159640
779.592	0.0158589
779.670	0.0160420
779.748	0.0159294
779.826	0.0158234
779.905	0.0159272
779.983	0.0159602
780.061	0.0161289
780.139	0.0160854
780.217	0.0161707
780.295	0.0162527
780.373	0.0161187
780.451	0.0161608
780.530	0.0161874
780.608	0.0161343
780.686	0.0160778
780.764	0.0160602
780.842	0.0161914
780.920	0.0162518
780.998	0.0160875
781.076	0.0160824
781.155	0.0160828
781.233	0.0162101
781.311	0.0162796
781.389	0.0163329
781.467	0.0162949
781.545	0.0162369
781.623	0.0164169
781.701	0.0164071
781.780	0.0164883
781.858	0.0164602
781.936	0.0163434
782.014	0.0165012
782.092	0.0164079
782.170	0.0164827
782.248	0.0164164
782.326	0.0164373
782.405	0.0165147
782.483	0.0165011
782.561	0.0163429
782.639	0.0163617
782.717	0.0163070
782.795	0.0165075
782.873	0.0161562
782.951	0.0161765
783.030	0.0162209
783.108	0.0160525
783.186	0.0160907
783.264	0.0162022
783.342	0.0159833
783.420	0.0159316
783.498	0.0159991
783.576	0.0159295
783.655	0.0158842
783.733	0.0158490
783.811	0.0158277
783.889	0.0160430
783.967	0.0159312
784.045	0.0159860
784.123	0.0161557
784.201	0.0161388
784.280	0.0159955
784.358	0.0159381
784.436	0.0159395
784.514	0.0158675
784.592	0.0159317
784.670	0.0158759
784.748	0.0159246
784.826	0.0159185
784.905	0.0160340
784.983	0.0160640
785.061	0.0161401
785.139	0.0161345
785.217	0.0158704
785.295	0.0159846
785.373	0.0161500
785.451	0.0160739
785.530	0.0161674
785.608	0.0163417
785.686	0.0163480
785.764	0.0163514
785.842	0.0165803
785.920	0.0165833
785.998	0.0165477
786.076	0.0166177
786.155	0.0166597
786.233	0.0167274
786.311	0.0166095
786.389	0.0166132
786.467	0.0166421
786.545	0.0166232
786.623	0.0166969
786.701	0.0167835
786.780	0.0165933
786.858	0.0165936
786.936	0.0165420
787.014	0.0165199
787.092	0.0164335
787.170	0.0164774
787.248	0.0165827
787.326	0.0166876
787.405	0.0165963
787.483	0.0165508
787.561	0.0165273
787.639	0.0163768
787.717	0.0164049
787.795	0.0166283
787.873	0.0165215
787.951	0.0163089
788.030	0.0163062
788.108	0.0164303
788.186	0.0163002
788.264	0.0163432
788.342	0.0162716
788.420	0.0162096
788.498	0.0160853
788.576	0.0162654
788.655	0.0162875
788.733	0.0162399
788.811	0.0160088
788.889	0.0160320
788.967	0.0161665
789.045	0.0160387
789.123	0.0160430
789.201	0.0159502
789.280	0.0160088
789.358	0.0160942
789.436	0.0160072
789.514	0.0160618
789.592	0.0161633
789.670	0.0163762
789.748	0.0161860
789.826	0.0160875
789.905	0.0163337
789.983	0.0162547
790.061	0.0162875
790.139	0.0163754
790.217	0.0163380
790.295	0.0162314
790.373	0.0162987
790.451	0.0163482
790.530	0.0162503
790.608	0.0162019
790.686	0.0163348
790.764	0.0162486
790.842	0.0163378
790.920	0.0163501
790.998	0.0162536
791.076	0.0164072
791.155	0.0162414
791.233	0.0163487
791.311	0.0163599
791.389	0.0163289
791.467	0.0163807
791.545	0.0164001
791.623	0.0163382
791.701	0.0163873
791.780	0.0163323
791.858	0.0163084
791.936	0.0164160
792.014	0.0164500
792.092	0.0163471
792.170	0.0162811
792.248	0.0162946
792.326	0.0162988
792.405	0.0163787
792.483	0.0164674
792.561	0.0164356
792.639	0.0164434
792.717	0.0163483
792.795	0.0163638
792.873	0.0164555
792.951	0.0164764
793.030	0.0164143
793.108	0.0164119
793.186	0.0165169
793.264	0.0164767
793.342	0.0164715
793.420	0.0165648
793.498	0.0166361
793.576	0.0165060
793.655	0.0164986
793.733	0.0165457
793.811	0.0164111
793.889	0.0165427
793.967	0.0165314
794.045	0.0165919
794.123	0.0164062
794.201	0.0164388
794.280	0.0165218
794.358	0.0165450
794.436	0.0162202
794.514	0.0164005
794.592	0.0164411
794.670	0.0163577
794.748	0.0161897
794.826	0.0162362
794.905	0.0161869
794.983	0.0161790
795.061	0.0160760
795.139	0.0160347
795.217	0.0161246
795.295	0.0162202
795.373	0.0160207
795.451	0.0159671
795.530	0.0162523
795.608	0.0162228
795.686	0.0161555
795.764	0.0161464
795.842	0.0161533
795.920	0.0161404
795.998	0.0161566
796.076	0.0162979
796.155	0.0163561
796.233	0.0162189
796.311	0.0163160
796.389	0.0163215
796.467	0.0164355
796.545	0.0165208
796.623	0.0164233
796.701	0.0163431
796.780	0.0164600
796.858	0.0165752
796.936	0.0164473
797.014	0.0165392
797.092	0.0164757
797.170	0.0164785
797.248	0.0165264
797.326	0.0164690
797.405	0.0164969
797.483	0.0164459
797.561	0.0165354
797.639	0.0166067
797.717	0.0165974
797.795	0.0165427
797.873	0.0165079
797.951	0.0165485
798.030	0.0167924
798.108	0.0166900
798.186	0.0165527
798.264	0.0166299
798.342	0.0166116
798.420	0.0165777
798.498	0.0166358
798.576	0.0166325
798.655	0.0165558
798.733	0.0166244
798.811	0.0164396
798.889	0.0164256
798.967	0.0165881
799.045	0.0164312
799.123	0.0166279
799.201	0.0164822
799.280	0.0163950
799.358	0.0161691
799.436	0.0162730
799.514	0.0163634
799.592	0.0161210
799.670	0.0162773
799.748	0.0161032
799.826	0.0159717
799.905	0.0161031
799.983	0.0159934
800.061	0.0159525
800.139	0.0161491
800.217	0.0160309
800.295	0.0159449
800.373	0.0160226
800.451	0.0160130
800.530	0.0159909
800.608	0.0160136
800.686	0.0161240
800.764	0.0161150
800.842	0.0161829
800.920	0.0161863
800.998	0.0161466
801.076	0.0162296
801.155	0.0161094
801.233	0.0162285
801.311	0.0162254
801.389	0.0162557
801.467	0.0162602
801.545	0.0164611
801.623	0.0162962
801.701	0.0163183
801.780	0.0165368
801.858	0.0164577
801.936	0.0164036
802.014	0.0163672
802.092	0.0164838
802.170	0.0164622
802.248	0.0165267
802.326	0.0164038
802.405	0.0165250
802.483	0.0165996
802.561	0.0166375
802.639	0.0166203
802.717	0.0165529
802.795	0.0164276
802.873	0.0164634
802.951	0.0164462
803.030	0.0165350
803.108	0.0164921
803.186	0.0165806
803.264	0.0164339
803.342	0.0165530
803.420	0.0165388
803.498	0.0164494
803.576	0.0165603
803.655	0.0165422
803.733	0.0164549
803.811	0.0164115
803.889	0.0165172
803.967	0.0164893
804.045	0.0163712
804.123	0.0163350
804.201	0.0164374
804.280	0.0164085
804.358	0.0162874
804.436	0.0163733
804.514	0.0163648
804.592	0.0164272
804.670	0.0162585
804.748	0.0163340
804.826	0.0163668
804.905	0.0161554
804.983	0.0163179
805.061	0.0162267
805.139	0.0161783
805.217	0.0162540
805.295	0.0162149
805.373	0.0162783
805.451	0.0162613
805.530	0.0160838
805.608	0.0162297
805.686	0.0161662
805.764	0.0160566
805.842	0.0160146
805.920	0.0159579
805.998	0.0160020
806.076	0.0160220
806.155	0.0160889
806.233	0.0161376
806.311	0.0161391
806.389	0.0162489
806.467	0.0160526
806.545	0.0161170
806.623	0.0162183
806.701	0.0163073
806.780	0.0162505
806.858	0.0162570
806.936	0.0163391
807.014	0.0163406
807.092	0.0163162
807.170	0.0161930
807.248	0.0161654
807.326	0.0163653
807.405	0.0164608
807.483	0.0162196
807.561	0.0164129
807.639	0.0163638
807.717	0.0165054
807.795	0.0165459
807.873	0.0164008
807.951	0.0163839
808.030	0.0163596
808.108	0.0164210
808.186	0.0162369
808.264	0.0163674
808.342	0.0162406
808.420	0.0161782
808.498	0.0162045
808.576	0.0161602
808.655	0.0161458
808.733	0.0161069
808.811	0.0161619
808.889	0.0161632
808.967	0.0161671
809.045	0.0161620
809.123	0.0160619
809.201	0.0162794
809.280	0.0162597
809.358	0.0161610
809.436	0.0163178
809.514	0.0162630
809.592	0.0162540
809.670	0.0163193
809.748	0.0162241
809.826	0.0164172
809.905	0.0163323
809.983	0.0161349
810.061	0.0162733
810.139	0.0163717
810.217	0.0164198
810.295	0.0161238
810.373	0.0162572
810.451	0.0162938
810.530	0.0161960
810.608	0.0161723
810.686	0.0161024
810.764	0.0163689
810.842	0.0162887
810.920	0.0160694
810.998	0.0160855
811.076	0.0161954
811.155	0.0160390
811.233	0.0160526
811.311	0.0161947
811.389	0.0161636
811.467	0.0161437
811.545	0.0163329
811.623	0.0162146
811.701	0.0160993
811.780	0.0162531
811.858	0.0162135
811.936	0.0161835
812.014	0.0163256
812.092	0.0162685
812.170	0.0161651
812.248	0.0162797
812.326	0.0161087
812.405	0.0162051
812.483	0.0161128
812.561	0.0161576
812.639	0.0162094
812.717	0.0162967
812.795	0.0162170
812.873	0.0163145
812.951	0.0162744
813.030	0.0162587
813.108	0.0163972
813.186	0.0163148
813.264	0.0162920
813.342	0.0163701
813.420	0.0163010
813.498	0.0164549
813.576	0.0163839
813.655	0.0162847
813.733	0.0163876
813.811	0.0163952
813.889	0.0162685
813.967	0.0164219
814.045	0.0164366
814.123	0.0164030
814.201	0.0163033
814.280	0.0163104
814.358	0.0162646
814.436	0.0164021
814.514	0.0163689
814.592	0.0162627
814.670	0.0163494
814.748	0.0163421
814.826	0.0163554
814.905	0.0164439
814.983	0.0162836
815.061	0.0163532
815.139	0.0163654
815.217	0.0163525
815.295	0.0163161
815.373	0.0162259
815.451	0.0162504
815.530	0.0163913
815.608	0.0162838
815.686	0.0163177
815.764	0.0162008
815.842	0.0162785
815.920	0.0162166
815.998	0.0161176
816.076	0.0163083
816.155	0.0163576
816.233	0.0163783
816.311	0.0161658
816.389	0.0162666
816.467	0.0162940
816.545	0.0161825
816.623	0.0161357
816.701	0.0161303
816.780	0.0162601
816.858	0.0160472
816.936	0.0161645
817.014	0.0162728
817.092	0.0162543
817.170	0.0161430
817.248	0.0163392
817.326	0.0162822
817.405	0.0163043
817.483	0.0163030
817.561	0.0164240
817.639	0.0164205
817.717	0.0164311
817.795	0.0163929
817.873	0.0164921
817.951	0.0165064
818.030	0.0165199
818.108	0.0162964
818.186	0.0164786
818.264	0.0165344
818.342	0.0165978
818.420	0.0164439
818.498	0.0162976
818.576	0.0165310
818.655	0.0164409
818.733	0.0163417
818.811	0.0164500
818.889	0.0164702
818.967	0.0165540
819.045	0.0163111
819.123	0.0163581
819.201	0.0164574
819.280	0.0164062
819.358	0.0163593
819.436	0.0163185
819.514	0.0162803
819.592	0.0163317
819.670	0.0163725
819.748	0.0161878
819.826	0.0162981
819.905	0.0161911
819.983	0.0162695
820.061	0.0162948
820.139	0.0163715
820.217	0.0163473
820.295	0.0160964
820.373	0.0162254
820.451	0.0162292
820.530	0.0162789
820.608	0.0162180
820.686	0.0163499
820.764	0.0163081
820.842	0.0162414
820.920	0.0162798
820.998	0.0162363
821.076	0.0163164
821.155	0.0164384
821.233	0.0163897
821.311	0.0164208
821.389	0.0165042
821.467	0.0163382
821.545	0.0163740
821.623	0.0163934
821.701	0.0164584
821.780	0.0165115
821.858	0.0165258
821.936	0.0164183
822.014	0.0163783
822.092	0.0163708
822.170	0.0163536
822.248	0.0164596
822.326	0.0163859
822.405	0.0163631
822.483	0.0163426
822.561	0.0163139
822.639	0.0163954
822.717	0.0164816
822.795	0.0165361
822.873	0.0165193
822.951	0.0164536
823.030	0.0165810
823.108	0.0164853
823.186	0.0164857
823.264	0.0165806
823.342	0.0166213
823.420	0.0165067
823.498	0.0166135
823.576	0.0164188
823.655	0.0165845
823.733	0.0165257
823.811	0.0165054
823.889	0.0165025
823.967	0.0164838
824.045	0.0165563
824.123	0.0165506
824.201	0.0163185
824.280	0.0163254
824.358	0.0162615
824.436	0.0163024
824.514	0.0163451
824.592	0.0163612
824.670	0.0163271
824.748	0.0162473
824.826	0.0163815
824.905	0.0163304
824.983	0.0164104
825.061	0.0163615
825.139	0.0163522
825.217	0.0163278
825.295	0.0163213
825.373	0.0164616
825.451	0.0164108
825.530	0.0164682
825.608	0.0165884
825.686	0.0164278
825.764	0.0163719
825.842	0.0164996
825.920	0.0164549
825.998	0.0164902
826.076	0.0165140
826.155	0.0164919
826.233	0.0164196
826.311	0.0163976
826.389	0.0164309
826.467	0.0162469
826.545	0.0163568
826.623	0.0163609
826.701	0.0163389
826.780	0.0162506
826.858	0.0163490
826.936	0.0163374
827.014	0.0162372
827.092	0.0162505
827.170	0.0163059
827.248	0.0161646
827.326	0.0162957
827.405	0.0163934
827.483	0.0163679
827.561	0.0164069
827.639	0.0164951
827.717	0.0164558
827.795	0.0163655
827.873	0.0162885
827.951	0.0163109
828.030	0.0162508
828.108	0.0162954
828.186	0.0162871
828.264	0.0163455
828.342	0.0163719
828.420	0.0164130
828.498	0.0162453
828.576	0.0163841
828.655	0.0162788
828.733	0.0162439
828.811	0.0163543
828.889	0.0164336
828.967	0.0163109
829.045	0.0165958
829.123	0.0165996
829.201	0.0164445
829.280	0.0166178
829.358	0.0164969
829.436	0.0164233
829.514	0.0163898
829.592	0.0165751
829.670	0.0163828
829.748	0.0164116
829.826	0.0165170
829.905	0.0164371
829.983	0.0164486
830.061	0.0165303
830.139	0.0164548
830.217	0.0164505
830.295	0.0162843
830.373	0.0163519
830.451	0.0162751
830.530	0.0163085
830.608	0.0163236
830.686	0.0163727
830.764	0.0162764
830.842	0.0163390
830.920	0.0163265
830.998	0.0163044
831.076	0.0163257
831.155	0.0163322
831.233	0.0163027
831.311	0.0163988
831.389	0.0164179
831.467	0.0163927
831.545	0.0162777
831.623	0.0162614
831.701	0.0163893
831.780	0.0163402
831.858	0.0164352
831.936	0.0162959
832.014	0.0162526
832.092	0.0163396
832.170	0.0163788
832.248	0.0163801
832.326	0.0162894
832.405	0.0162221
832.483	0.0163852
832.561	0.0161516
832.639	0.0162504
832.717	0.0161769
832.795	0.0162398
832.873	0.0162222
832.951	0.0161443
833.030	0.0162324
833.108	0.0162018
833.186	0.0162532
833.264	0.0163129
833.342	0.0163962
833.420	0.0162386
833.498	0.0163042
833.576	0.0162543
833.655	0.0164400
833.733	0.0163776
833.811	0.0163213
833.889	0.0162837
833.967	0.0163351
834.045	0.0165156
834.123	0.0163949
834.201	0.0163157
834.280	0.0162798
834.358	0.0163574
834.436	0.0164472
834.514	0.0163899
834.592	0.0161153
834.670	0.0163219
834.748	0.0161320
834.826	0.0162498
834.905	0.0161579
834.983	0.0161416
835.061	0.0162591
835.139	0.0160918
835.217	0.0159672
835.295	0.0159914
835.373	0.0160891
835.451	0.0160531
835.530	0.0160582
835.608	0.0160540
835.686	0.0159766
835.764	0.0160970
835.842	0.0161563
835.920	0.0160309
835.998	0.0161058
836.076	0.0161392
836.155	0.0159767
836.233	0.0160692
836.311	0.0160192
836.389	0.0160986
836.467	0.0160815
836.545	0.0161779
836.623	0.0160232
836.701	0.0160566
836.780	0.0161976
836.858	0.0162608
836.936	0.0160532
837.014	0.0160477
837.092	0.0160963
837.170	0.0159608
837.248	0.0160897
837.326	0.0162180
837.405	0.0162270
837.483	0.0161460
837.561	0.0163599
837.639	0.0163218
837.717	0.0163272
837.795	0.0163555
837.873	0.0161871
837.951	0.0162585
838.030	0.0162437
838.108	0.0159853
838.186	0.0162020
838.264	0.0163197
838.342	0.0163671
838.420	0.0162385
838.498	0.0163302
838.576	0.0163215
838.655	0.0162083
838.733	0.0161398
838.811	0.0160558
838.889	0.0162897
838.967	0.0162997
839.045	0.0161032
839.123	0.0163448
839.201	0.0162640
839.280	0.0162804
839.358	0.0163258
839.436	0.0163181
839.514	0.0162856
839.592	0.0162547
839.670	0.0163610
839.748	0.0162526
839.826	0.0163477
839.905	0.0163000
839.983	0.0163364
840.061	0.0162653
840.139	0.0163753
840.217	0.0162958
840.295	0.0163409
840.373	0.0162829
840.451	0.0163394
840.530	0.0162840
840.608	0.0161392
840.686	0.0162282
840.764	0.0162384
840.842	0.0162605
840.920	0.0163863
840.998	0.0162868
841.076	0.0163688
841.155	0.0163253
841.233	0.0163474
841.311	0.0163407
841.389	0.0163962
841.467	0.0162984
841.545	0.0162569
841.623	0.0163000
841.701	0.0163345
841.780	0.0163605
841.858	0.0164053
841.936	0.0163318
842.014	0.0163209
842.092	0.0163198
842.170	0.0161800
842.248	0.0163196
842.326	0.0162177
842.405	0.0163786
842.483	0.0162943
842.561	0.0163011
842.639	0.0163814
842.717	0.0162545
842.795	0.0163646
842.873	0.0163000
842.951	0.0162588
843.030	0.0162283
843.108	0.0161954
843.186	0.0163580
843.264	0.0163708
843.342	0.0162881
843.420	0.0162753
843.498	0.0163373
843.576	0.0164458
843.655	0.0163570
843.733	0.0163209
843.811	0.0164142
843.889	0.0163030
843.967	0.0163084
844.045	0.0163013
844.123	0.0162235
844.201	0.0164169
844.280	0.0163664
844.358	0.0164315
844.436	0.0164986
844.514	0.0165828
844.592	0.0164993
844.670	0.0165614
844.748	0.0165269
844.826	0.0165910
844.905	0.0165733
844.983	0.0164895
845.061	0.0165196
845.139	0.0164128
845.217	0.0166010
845.295	0.0165501
845.373	0.0164125
845.451	0.0162668
845.530	0.0165316
845.608	0.0164917
845.686	0.0164903
845.764	0.0165543
845.842	0.0165861
845.920	0.0165017
845.998	0.0164317
846.076	0.0163929
846.155	0.0164120
846.233	0.0164465
846.311	0.0163363
846.389	0.0163818
846.467	0.0164828
846.545	0.0164133
846.623	0.0163691
846.701	0.0161958
846.780	0.0162898
846.858	0.0163502
846.936	0.0163105
847.014	0.0163352
847.092	0.0162354
847.170	0.0163455
847.248	0.0161424
847.326	0.0163863
847.405	0.0162759
847.483	0.0161471
847.561	0.0161807
847.639	0.0161888
847.717	0.0162799
847.795	0.0161798
847.873	0.0162366
847.951	0.0162600
848.030	0.0161960
848.108	0.0162652
848.186	0.0163240
848.264	0.0163542
848.342	0.0161909
848.420	0.0162669
848.498	0.0163169
848.576	0.0161899
848.655	0.0162716
848.733	0.0163883
848.811	0.0163132
848.889	0.0163014
848.967	0.0163586
849.045	0.0162401
849.123	0.0163548
849.201	0.0163464
849.280	0.0163225
849.358	0.0163432
849.436	0.0163158
849.514	0.0163894
849.592	0.0162928
849.670	0.0163583
849.748	0.0163048
849.826	0.0164061
849.905	0.0164573
849.983	0.0165256
850.061	0.0165818
850.139	0.0164928
850.217	0.0164974
850.295	0.0164044
850.373	0.0163881
850.451	0.0165073
850.530	0.0163883
850.608	0.0162659
850.686	0.0163493
850.764	0.0163156
850.842	0.0163564
850.920	0.0162653
850.998	0.0163134
851.076	0.0162147
851.155	0.0163472
851.233	0.0163115
851.311	0.0161786
851.389	0.0161899
851.467	0.0162805
851.545	0.0162856
851.623	0.0163916
851.701	0.0161624
851.780	0.0162888
851.858	0.0163016
851.936	0.0163096
852.014	0.0163993
852.092	0.0162796
852.170	0.0162218
852.248	0.0164109
852.326	0.0163650
852.405	0.0163905
852.483	0.0164225
852.561	0.0162931
852.639	0.0164431
852.717	0.0163839
852.795	0.0163430
852.873	0.0164098
852.951	0.0163054
853.030	0.0162022
853.108	0.0162785
853.186	0.0162858
853.264	0.0163487
853.342	0.0163815
853.420	0.0163353
853.498	0.0162202
853.576	0.0161891
853.655	0.0163183
853.733	0.0161823
853.811	0.0162167
853.889	0.0160873
853.967	0.0162468
854.045	0.0161849
854.123	0.0161275
854.201	0.0162769
854.280	0.0162417
854.358	0.0162579
854.436	0.0163300
854.514	0.0162592
854.592	0.0162490
854.670	0.0162105
854.748	0.0162212
854.826	0.0163011
854.905	0.0162407
854.983	0.0162933
855.061	0.0163589
855.139	0.0161970
855.217	0.0161655
855.295	0.0162727
855.373	0.0162635
855.451	0.0162629
855.530	0.0161561
855.608	0.0163264
855.686	0.0163181
855.764	0.0162379
855.842	0.0161356
855.920	0.0161685
855.998	0.0161517
856.076	0.0161854
856.155	0.0162484
856.233	0.0160804
856.311	0.0162502
856.389	0.0162869
856.467	0.0162945
856.545	0.0162372
856.623	0.0162828
856.701	0.0161563
856.780	0.0163940
856.858	0.0162724
856.936	0.0163354
857.014	0.0161890
857.092	0.0162080
857.170	0.0161677
857.248	0.0162584
857.326	0.0162967
857.405	0.0161312
857.483	0.0163068
857.561	0.0163291
857.639	0.0161560
857.717	0.0163786
857.795	0.0164299
857.873	0.0162368
857.951	0.0160992
858.030	0.0163003
858.108	0.0161217
858.186	0.0162486
858.264	0.0162604
858.342	0.0162592
858.420	0.0161517
858.498	0.0161756
858.576	0.0162996
858.655	0.0161123
858.733	0.0160893
858.811	0.0161504
858.889	0.0160992
858.967	0.0161775
859.045	0.0160612
859.123	0.0162797
859.201	0.0161337
859.280	0.0160573
859.358	0.0160981
859.436	0.0160237
859.514	0.0161655
859.592	0.0161251
859.670	0.0161407
859.748	0.0161602
859.826	0.0162333
859.905	0.0159628
859.983	0.0162070
860.061	0.0162233
860.139	0.0161702
860.217	0.0162308
860.295	0.0162422
860.373	0.0162540
860.451	0.0162070
860.530	0.0162532
860.608	0.0162168
860.686	0.0163905
860.764	0.0164326
860.842	0.0163381
860.920	0.0163338
860.998	0.0163103
861.076	0.0163448
861.155	0.0163391
861.233	0.0162927
861.311	0.0162766
861.389	0.0164063
861.467	0.0165040
861.545	0.0163370
861.623	0.0162115
861.701	0.0163451
861.780	0.0165100
861.858	0.0163976
861.936	0.0163557
862.014	0.0163847
862.092	0.0163383
862.170	0.0163167
862.248	0.0164127
862.326	0.0163094
862.405	0.0164209
862.483	0.0163130
862.561	0.0163131
862.639	0.0162785
862.717	0.0162397
862.795	0.0163544
862.873	0.0162282
862.951	0.0164103
863.030	0.0162283
863.108	0.0162003
863.186	0.0162858
863.264	0.0162505
863.342	0.0162531
863.420	0.0160954
863.498	0.0162881
863.576	0.0162376
863.655	0.0161911
863.733	0.0161268
863.811	0.0162514
863.889	0.0162568
863.967	0.0161893
864.045	0.0162092
864.123	0.0162352
864.201	0.0162092
864.280	0.0163211
864.358	0.0163192
864.436	0.0163876
864.514	0.0162965
864.592	0.0162920
864.670	0.0162443
864.748	0.0162995
864.826	0.0163958
864.905	0.0163844
864.983	0.0163431
865.061	0.0163778
865.139	0.0162766
865.217	0.0163667
865.295	0.0163026
865.373	0.0163353
865.451	0.0165273
865.530	0.0163898
865.608	0.0163373
865.686	0.0162550
865.764	0.0163930
865.842	0.0164214
865.920	0.0163483
865.998	0.0162780
866.076	0.0163683
866.155	0.0163036
866.233	0.0162995
866.311	0.0164130
866.389	0.0162960
866.467	0.0162363
866.545	0.0162199
866.623	0.0162580
866.701	0.0163996
866.780	0.0163634
866.858	0.0163631
866.936	0.0163405
867.014	0.0164539
867.092	0.0163824
867.170	0.0164437
867.248	0.0163087
867.326	0.0162859
867.405	0.0163806
867.483	0.0163974
867.561	0.0162471
867.639	0.0161855
867.717	0.0163099
867.795	0.0162885
867.873	0.0163737
867.951	0.0162914
868.030	0.0163845
868.108	0.0162862
868.186	0.0163357
868.264	0.0162526
868.342	0.0163586
868.420	0.0164257
868.498	0.0163467
868.576	0.0163741
868.655	0.0163089
868.733	0.0163834
868.811	0.0163824
868.889	0.0163873
868.967	0.0162221
869.045	0.0162410
869.123	0.0162420
869.201	0.0163294
869.280	0.0163857
869.358	0.0162933
869.436	0.0163898
869.514	0.0163831
869.592	0.0162708
869.670	0.0162563
869.748	0.0163245
869.826	0.0163817
869.905	0.0162928
869.983	0.0163513
870.061	0.0161092
870.139	0.0161339
870.217	0.0161773
870.295	0.0160638
870.373	0.0160235
870.451	0.0162156
870.530	0.0160944
870.608	0.0160402
870.686	0.0160813
870.764	0.0160593
870.842	0.0160104
870.920	0.0162308
870.998	0.0162334
871.076	0.0163199
871.155	0.0160313
871.233	0.0162580
871.311	0.0163289
871.389	0.0163414
871.467	0.0163050
871.545	0.0163227
871.623	0.0164541
871.701	0.0165344
871.780	0.0164249
871.858	0.0163876
871.936	0.0163821
872.014	0.0164457
872.092	0.0165504
872.170	0.0165018
872.248	0.0165356
872.326	0.0164839
872.405	0.0164804
872.483	0.0163947
872.561	0.0164602
872.639	0.0163295
872.717	0.0163902
872.795	0.0163161
872.873	0.0163113
872.951	0.0163457
873.030	0.0163216
873.108	0.0162887
873.186	0.0162165
873.264	0.0162125
873.342	0.0163130
873.420	0.0163136
873.498	0.0161241
873.576	0.0163206
873.655	0.0163069
873.733	0.0161535
873.811	0.0163586
873.889	0.0163287
873.967	0.0162303
874.045	0.0162885
874.123	0.0163374
874.201	0.0163522
874.280	0.0163028
874.358	0.0164062
874.436	0.0163799
874.514	0.0162346
874.592	0.0163019
874.670	0.0163372
874.748	0.0164526
874.826	0.0163023
874.905	0.0163840
874.983	0.0162750
875.061	0.0163551
875.139	0.0162149
875.217	0.0163446
875.295	0.0163197
875.373	0.0163554
875.451	0.0163536
875.530	0.0164377
875.608	0.0161559
875.686	0.0163455
875.764	0.0164011
875.842	0.0161240
875.920	0.0163668
875.998	0.0162453
876.076	0.0163675
876.155	0.0162215
876.233	0.0163791
876.311	0.0162346
876.389	0.0163297
876.467	0.0163148
876.545	0.0163251
876.623	0.0162968
876.701	0.0163028
876.780	0.0163016
876.858	0.0162708
876.936	0.0163634
877.014	0.0161633
877.092	0.0161639
877.170	0.0161621
877.248	0.0161661
877.326	0.0161207
877.405	0.0161143
877.483	0.0161991
877.561	0.0161459
877.639	0.0161532
877.717	0.0162393
877.795	0.0159938
877.873	0.0161024
877.951	0.0162453
878.030	0.0161260
878.108	0.0160947
878.186	0.0160958
878.264	0.0161370
878.342	0.0160462
878.420	0.0162031
878.498	0.0161613
878.576	0.0160468
878.655	0.0161395
878.733	0.0160763
878.811	0.0161805
878.889	0.0161797
878.967	0.0161310
879.045	0.0161029
879.123	0.0161987
879.201	0.0162431
879.280	0.0163169
879.358	0.0162733
879.436	0.0162299
879.514	0.0164365
879.592	0.0163896
879.670	0.0164028
879.748	0.0163326
879.826	0.0163840
879.905	0.0163171
879.983	0.0164322
880.061	0.0164329
880.139	0.0163608
880.217	0.0163548
880.295	0.0164091
880.373	0.0163149
880.451	0.0163357
880.530	0.0162667
880.608	0.0162387
880.686	0.0163907
880.764	0.0163049
880.842	0.0163346
880.920	0.0162262
880.998	0.0163042
881.076	0.0161771
881.155	0.0163100
881.233	0.0164117
881.311	0.0162846
881.389	0.0163090
881.467	0.0163532
881.545	0.0163124
881.623	0.0163091
881.701	0.0163402
881.780	0.0162321
881.858	0.0162890
881.936	0.0162785
882.014	0.0163394
882.092	0.0163235
882.170	0.0163221
882.248	0.0164772
882.326	0.0163184
882.405	0.0162238
882.483	0.0162535
882.561	0.0163393
882.639	0.0164259
882.717	0.0162582
882.795	0.0162299
882.873	0.0162009
882.951	0.0161646
883.030	0.0162825
883.108	0.0162944
883.186	0.0163407
883.264	0.0162392
883.342	0.0163361
883.420	0.0161566
883.498	0.0162404
883.576	0.0163131
883.655	0.0162659
883.733	0.0163731
883.811	0.0163289
883.889	0.0162997
883.967	0.0162793
884.045	0.0163664
884.123	0.0162741
884.201	0.0163084
884.280	0.0162712
884.358	0.0163989
884.436	0.0163616
884.514	0.0163622
884.592	0.0164111
884.670	0.0164581
884.748	0.0164314
884.826	0.0163701
884.905	0.0163345
884.983	0.0163861
885.061	0.0163705
885.139	0.0164068
885.217	0.0164828
885.295	0.0163642
885.373	0.0164234
885.451	0.0164032
885.530	0.0162395
885.608	0.0162314
885.686	0.0163048
885.764	0.0162515
885.842	0.0163066
885.920	0.0162905
885.998	0.0162871
886.076	0.0162624
886.155	0.0162724
886.233	0.0163137
886.311	0.0163690
886.389	0.0163004
886.467	0.0163345
886.545	0.0163929
886.623	0.0163348
886.701	0.0163866
886.780	0.0165302
886.858	0.0163303
886.936	0.0164839
887.014	0.0164269
887.092	0.0163885
887.170	0.0165711
887.248	0.0166483
887.326	0.0165380
887.405	0.0165804
887.483	0.0164560
887.561	0.0163825
887.639	0.0165561
887.717	0.0166474
887.795	0.0164553
887.873	0.0164344
887.951	0.0165262
888.030	0.0164227
888.108	0.0164652
888.186	0.0165137
888.264	0.0165589
888.342	0.0163997
888.420	0.0164471
888.498	0.0164626
888.576	0.0165311
888.655	0.0164688
888.733	0.0163072
888.811	0.0162260
888.889	0.0163873
888.967	0.0162872
889.045	0.0162063
889.123	0.0163573
889.201	0.0162639
889.280	0.0163363
889.358	0.0163278
889.436	0.0162227
889.514	0.0163242
889.592	0.0162993
889.670	0.0162595
889.748	0.0162955
889.826	0.0162505
889.905	0.0162952
889.983	0.0163768
890.061	0.0163711
890.139	0.0163175
890.217	0.0162326
890.295	0.0162904
890.373	0.0162906
890.451	0.0163190
890.530	0.0163893
890.608	0.0162855
890.686	0.0162556
890.764	0.0163871
890.842	0.0162926
890.920	0.0161911
890.998	0.0163114
891.076	0.0161521
891.155	0.0162065
891.233	0.0161787
891.311	0.0162570
891.389	0.0162347
891.467	0.0162847
891.545	0.0161841
891.623	0.0161463
891.701	0.0163806
891.780	0.0162884
891.858	0.0162399
891.936	0.0161915
892.014	0.0162797
892.092	0.0162376
892.170	0.0163651
892.248	0.0163679
892.326	0.0162227
892.405	0.0162196
892.483	0.0162929
892.561	0.0163899
892.639	0.0161788
892.717	0.0162305
892.795	0.0163437
892.873	0.0162830
892.951	0.0162917
893.030	0.0163802
893.108	0.0160385
893.186	0.0161806
893.264	0.0160983
893.342	0.0161948
893.420	0.0161650
893.498	0.0161752
893.576	0.0161339
893.655	0.0161387
893.733	0.0161441
893.811	0.0160783
893.889	0.0160385
893.967	0.0159830
894.045	0.0161005
894.123	0.0159444
894.201	0.0160442
894.280	0.0159516
894.358	0.0158918
894.436	0.0159034
894.514	0.0160340
894.592	0.0160513
894.670	0.0159729
894.748	0.0159860
894.826	0.0161261
894.905	0.0161077
894.983	0.0163040
895.061	0.0161604
895.139	0.0161617
895.217	0.0161073
895.295	0.0161974
895.373	0.0162735
895.451	0.0162135
895.530	0.0162682
895.608	0.0162135
895.686	0.0163527
895.764	0.0163615
895.842	0.0161598
895.920	0.0163148
895.998	0.0163396
896.076	0.0163680
896.155	0.0163602
896.233	0.0162752
896.311	0.0162918
896.389	0.0162473
896.467	0.0162268
896.545	0.0162848
896.623	0.0164085
896.701	0.0162807
896.780	0.0162795
896.858	0.0162482
896.936	0.0162626
897.014	0.0162616
897.092	0.0161771
897.170	0.0163355
897.248	0.0163166
897.326	0.0161066
897.405	0.0162709
897.483	0.0163336
897.561	0.0163262
897.639	0.0164258
897.717	0.0163924
897.795	0.0164513
897.873	0.0162833
897.951	0.0164449
898.030	0.0164042
898.108	0.0163735
898.186	0.0163673
898.264	0.0165009
898.342	0.0163297
898.420	0.0164312
898.498	0.0164554
898.576	0.0164567
898.655	0.0162769
898.733	0.0163506
898.811	0.0163077
898.889	0.0163239
898.967	0.0163409
899.045	0.0163397
899.123	0.0164604
899.201	0.0163187
899.280	0.0163630
899.358	0.0162286
899.436	0.0162229
899.514	0.0162926
899.592	0.0163113
899.670	0.0164455
899.748	0.0162859
899.826	0.0164382
899.905	0.0163583
899.983	0.0163651
900.061	0.0163741
900.139	0.0163651
900.217	0.0162601
900.295	0.0162866
900.373	0.0161928
900.451	0.0163056
900.530	0.0162502
900.608	0.0164825
900.686	0.0162600
900.764	0.0162143
900.842	0.0163904
900.920	0.0164393
900.998	0.0163102
901.076	0.0163717
901.155	0.0162599
901.233	0.0162403
901.311	0.0163717
901.389	0.0163481
901.467	0.0164124
901.545	0.0163224
901.623	0.0163327
901.701	0.0164646
901.780	0.0162854
901.858	0.0163863
901.936	0.0164661
902.014	0.0163183
902.092	0.0163705
902.170	0.0164277
902.248	0.0164073
902.326	0.0163208
902.405	0.0163378
902.483	0.0162147
902.561	0.0162273
902.639	0.0163203
902.717	0.0162784
902.795	0.0162936
902.873	0.0163602
902.951	0.0163350
903.030	0.0162650
903.108	0.0163275
903.186	0.0162985
903.264	0.0161658
903.342	0.0161730
903.420	0.0162564
903.498	0.0162851
903.576	0.0162118
903.655	0.0162531
903.733	0.0162283
903.811	0.0161984
903.889	0.0163839
903.967	0.0161889
904.045	0.0162442
904.123	0.0163364
904.201	0.0163316
904.280	0.0162086
904.358	0.0162589
904.436	0.0163029
904.514	0.0163598
904.592	0.0161782
904.670	0.0161452
904.748	0.0163480
904.826	0.0163359
904.905	0.0162914
904.983	0.0162438
905.061	0.0164494
905.139	0.0162869
905.217	0.0162049
905.295	0.0162144
905.373	0.0165186
905.451	0.0164134
905.530	0.0163315
905.608	0.0163528
905.686	0.0163821
905.764	0.0164998
905.842	0.0162836
905.920	0.0164286
905.998	0.0163702
906.076	0.0164066
906.155	0.0163989
906.233	0.0163570
906.311	0.0163306
906.389	0.0164423
906.467	0.0164497
906.545	0.0165584
906.623	0.0165041
906.701	0.0164946
906.780	0.0162870
906.858	0.0163358
906.936	0.0165488
907.014	0.0164915
907.092	0.0164851
907.170	0.0165361
907.248	0.0164290
907.326	0.0163822
907.405	0.0164999
907.483	0.0165121
907.561	0.0165982
907.639	0.0165036
907.717	0.0163894
907.795	0.0164989
907.873	0.0165089
907.951	0.0164143
908.030	0.0164698
908.108	0.0165425
908.186	0.0165283
908.264	0.0165889
908.342	0.0166169
908.420	0.0164762
908.498	0.0163416
908.576	0.0165525
908.655	0.0165398
908.733	0.0163699
908.811	0.0164166
908.889	0.0164906
908.967	0.0165173
909.045	0.0164606
909.123	0.0165312
909.201	0.0164545
909.280	0.0164063
909.358	0.0164871
909.436	0.0163905
909.514	0.0164212
909.592	0.0164854
909.670	0.0163316
909.748	0.0163985
909.826	0.0162846
909.905	0.0163021
909.983	0.0162766
910.061	0.0163026
910.139	0.0163818
910.217	0.0162626
910.295	0.0162854
910.373	0.0160799
910.451	0.0161782
910.530	0.0161951
910.608	0.0161613
910.686	0.0161214
910.764	0.0162144
910.842	0.0161111
910.920	0.0162073
910.998	0.0162357
911.076	0.0162655
911.155	0.0161488
911.233	0.0161763
911.311	0.0162849
911.389	0.0162841
911.467	0.0162915
911.545	0.0162743
911.623	0.0162537
911.701	0.0163055
911.780	0.0163778
911.858	0.0164458
911.936	0.0164275
912.014	0.0163291
912.092	0.0162228
912.170	0.0162566
912.248	0.0163937
912.326	0.0163862
912.405	0.0163892
912.483	0.0163535
912.561	0.0162627
912.639	0.0163431
912.717	0.0162907
912.795	0.0161510
912.873	0.0164103
912.951	0.0163677
913.030	0.0164459
913.108	0.0163630
913.186	0.0163232
913.264	0.0162619
913.342	0.0163361
913.420	0.0164313
913.498	0.0163251
913.576	0.0164170
913.655	0.0162771
913.733	0.0164020
913.811	0.0164788
913.889	0.0164527
913.967	0.0163254
914.045	0.0163481
914.123	0.0164780
914.201	0.0164327
914.280	0.0163783
914.358	0.0164977
914.436	0.0162614
914.514	0.0162487
914.592	0.0163646
914.670	0.0163358
914.748	0.0164447
914.826	0.0163456
914.905	0.0163914
914.983	0.0163734
915.061	0.0164860
915.139	0.0164600
915.217	0.0163228
915.295	0.0163103
915.373	0.0164230
915.451	0.0163197
915.530	0.0163023
915.608	0.0165193
915.686	0.0164520
915.764	0.0163901
915.842	0.0165047
915.920	0.0164745
915.998	0.0164686
916.076	0.0163787
916.155	0.0162952
916.233	0.0163110
916.311	0.0163873
916.389	0.0162652
916.467	0.0163094
916.545	0.0163194
916.623	0.0162341
916.701	0.0162895
916.780	0.0162197
916.858	0.0162766
916.936	0.0162908
917.014	0.0161629
917.092	0.0164439
917.170	0.0163915
917.248	0.0162289
917.326	0.0162619
917.405	0.0162241
917.483	0.0162974
917.561	0.0163051
917.639	0.0163708
917.717	0.0163165
917.795	0.0163208
917.873	0.0163951
917.951	0.0163516
918.030	0.0163732
918.108	0.0163569
918.186	0.0162865
918.264	0.0163740
918.342	0.0163748
918.420	0.0164285
918.498	0.0164498
918.576	0.0162859
918.655	0.0163729
918.733	0.0163982
918.811	0.0163030
918.889	0.0164211
918.967	0.0164191
919.045	0.0162861
919.123	0.0162552
919.201	0.0162554
919.280	0.0162980
919.358	0.0162469
919.436	0.0162230
919.514	0.0163895
919.592	0.0162860
919.670	0.0162006
919.748	0.0164292
919.826	0.0161354
919.905	0.0161311
919.983	0.0162643
920.061	0.0162584
920.139	0.0162509
920.217	0.0164002
920.295	0.0163451
920.373	0.0160871
920.451	0.0161537
920.530	0.0164064
920.608	0.0163663
920.686	0.0163811
920.764	0.0164577
920.842	0.0163940
920.920	0.0163477
920.998	0.0163676
921.076	0.0162872
921.155	0.0163181
921.233	0.0163126
921.311	0.0162551
921.389	0.0163499
921.467	0.0162292
921.545	0.0162753
921.623	0.0163164
921.701	0.0162967
921.780	0.0163343
921.858	0.0163567
921.936	0.0163180
922.014	0.0163882
922.092	0.0163080
922.170	0.0165201
922.248	0.0165151
922.326	0.0163634
922.405	0.0162896
922.483	0.0163941
922.561	0.0164027
922.639	0.0162675
922.717	0.0164117
922.795	0.0163480
922.873	0.0162199
922.951	0.0163358
923.030	0.0163831
923.108	0.0163350
923.186	0.0162201
923.264	0.0162591
923.342	0.0163181
923.420	0.0162974
923.498	0.0163738
923.576	0.0163165
923.655	0.0163558
923.733	0.0164813
923.811	0.0163191
923.889	0.0165001
923.967	0.0163364
924.045	0.0163829
924.123	0.0163824
924.201	0.0163156
924.280	0.0163585
924.358	0.0162910
924.436	0.0163447
924.514	0.0164014
924.592	0.0164260
924.670	0.0164170
924.748	0.0162834
924.826	0.0162917
924.905	0.0163669
924.983	0.0162484
925.061	0.0163191
925.139	0.0164497
925.217	0.0163779
925.295	0.0163612
925.373	0.0163300
925.451	0.0162663
925.530	0.0162881
925.608	0.0164305
925.686	0.0162834
925.764	0.0162188
925.842	0.0162354
925.920	0.0162791
925.998	0.0162262
926.076	0.0162891
926.155	0.0160904
926.233	0.0161409
926.311	0.0162238
926.389	0.0161674
926.467	0.0162220
926.545	0.0161784
926.623	0.0161720
926.701	0.0161639
926.780	0.0162643
926.858	0.0160854
926.936	0.0161659
927.014	0.0161382
927.092	0.0161800
927.170	0.0161187
927.248	0.0162337
927.326	0.0161744
927.405	0.0160838
927.483	0.0161642
927.561	0.0162708
927.639	0.0163559
927.717	0.0162579
927.795	0.0162785
927.873	0.0161323
927.951	0.0163168
928.030	0.0164061
928.108	0.0163406
928.186	0.0162984
928.264	0.0163396
928.342	0.0164150
928.420	0.0163842
928.498	0.0163980
928.576	0.0163564
928.655	0.0163680
928.733	0.0163223
928.811	0.0164396
928.889	0.0163419
928.967	0.0163851
929.045	0.0164494
929.123	0.0163168
929.201	0.0163910
929.280	0.0163452
929.358	0.0162833
929.436	0.0161837
929.514	0.0162858
929.592	0.0162144
929.670	0.0162440
929.748	0.0163023
929.826	0.0161848
929.905	0.0162414
929.983	0.0162917
930.061	0.0163313
930.139	0.0162755
930.217	0.0162594
930.295	0.0161916
930.373	0.0161952
930.451	0.0161446
930.530	0.0163183
930.608	0.0163972
930.686	0.0161998
930.764	0.0163036
930.842	0.0163568
930.920	0.0163681
930.998	0.0162109
931.076	0.0162134
931.155	0.0163062
931.233	0.0164600
931.311	0.0162962
931.389	0.0163245
931.467	0.0164712
931.545	0.0164785
931.623	0.0163201
931.701	0.0163610
931.780	0.0163182
931.858	0.0164075
931.936	0.0163739
932.014	0.0163731
932.092	0.0164222
932.170	0.0163114
932.248	0.0163540
932.326	0.0163538
932.405	0.0162993
932.483	0.0163100
932.561	0.0163666
932.639	0.0161832
932.717	0.0162299
932.795	0.0162594
932.873	0.0162231
932.951	0.0162612
933.030	0.0163719
933.108	0.0161050
933.186	0.0161779
933.264	0.0161871
933.342	0.0163243
933.420	0.0161623
933.498	0.0161277
933.576	0.0163577
933.655	0.0162302
933.733	0.0162990
933.811	0.0163457
933.889	0.0162084
933.967	0.0163808
934.045	0.0162196
934.123	0.0161964
934.201	0.0162099
934.280	0.0162666
934.358	0.0161813
934.436	0.0162086
934.514	0.0161075
934.592	0.0161324
934.670	0.0160847
934.748	0.0161430
934.826	0.0161162
934.905	0.0162029
934.983	0.0162236
935.061	0.0162250
935.139	0.0162470
935.217	0.0162753
935.295	0.0161975
935.373	0.0161757
935.451	0.0163390
935.530	0.0161617
935.608	0.0161521
935.686	0.0163348
935.764	0.0163598
935.842	0.0161848
935.920	0.0162302
935.998	0.0162124
936.076	0.0162295
936.155	0.0161864
936.233	0.0162516
936.311	0.0163111
936.389	0.0163344
936.467	0.0162379
936.545	0.0161297
936.623	0.0163313
936.701	0.0162073
936.780	0.0162539
936.858	0.0162350
936.936	0.0162373
937.014	0.0162256
937.092	0.0162762
937.170	0.0161155
937.248	0.0162742
937.326	0.0161805
937.405	0.0162120
937.483	0.0161892
937.561	0.0160577
937.639	0.0162280
937.717	0.0161906
937.795	0.0162307
937.873	0.0161699
937.951	0.0161786
938.030	0.0161703
938.108	0.0161979
938.186	0.0162704
938.264	0.0162192
938.342	0.0161286
938.420	0.0162457
938.498	0.0163157
938.576	0.0162620
938.655	0.0160749
938.733	0.0162947
938.811	0.0162769
938.889	0.0161533
938.967	0.0162141
939.045	0.0161513
939.123	0.0163132
939.201	0.0161304
939.280	0.0162590
939.358	0.0162534
939.436	0.0162860
939.514	0.0162574
939.592	0.0162964
939.670	0.0162814
939.748	0.0164379
939.826	0.0163509
939.905	0.0161940
939.983	0.0163613
940.061	0.0162953
940.139	0.0164162
940.217	0.0163690
940.295	0.0163052
940.373	0.0163143
940.451	0.0162856
940.530	0.0165032
940.608	0.0163422
940.686	0.0162340
940.764	0.0162392
940.842	0.0165013
940.920	0.0162827
940.998	0.0163190
941.076	0.0163951
941.155	0.0164338
941.233	0.0163080
941.311	0.0163380
941.389	0.0164912
941.467	0.0163696
941.545	0.0163647
941.623	0.0163486
941.701	0.0163589
941.780	0.0164291
941.858	0.0163924
941.936	0.0165674
942.014	0.0163087
942.092	0.0164072
942.170	0.0162759
942.248	0.0164429
942.326	0.0162763
942.405	0.0163446
942.483	0.0163989
942.561	0.0162816
942.639	0.0162959
942.717	0.0162691
942.795	0.0163963
942.873	0.0162270
942.951	0.0162336
943.030	0.0162662
943.108	0.0163818
943.186	0.0163041
943.264	0.0163737
943.342	0.0162794
943.420	0.0161942
943.498	0.0163709
943.576	0.0162029
943.655	0.0162964
943.733	0.0164387
943.811	0.0161937
943.889	0.0162592
943.967	0.0162606
944.045	0.0162538
944.123	0.0164205
944.201	0.0163374
944.280	0.0162373
944.358	0.0162818
944.436	0.0163554
944.514	0.0163300
944.592	0.0161620
944.670	0.0163187
944.748	0.0162908
944.826	0.0163667
944.905	0.0162667
944.983	0.0162353
945.061	0.0161900
945.139	0.0162053
945.217	0.0162036
945.295	0.0162257
945.373	0.0161554
945.451	0.0160954
945.530	0.0163123
945.608	0.0162968
945.686	0.0161415
945.764	0.0162001
945.842	0.0161942
945.920	0.0160690
945.998	0.0162168
946.076	0.0163123
946.155	0.0162616
946.233	0.0162242
946.311	0.0162465
946.389	0.0162558
946.467	0.0163262
946.545	0.0163302
946.623	0.0163061
946.701	0.0162179
946.780	0.0163403
946.858	0.0162408
946.936	0.0163062
947.014	0.0163129
947.092	0.0162377
947.170	0.0162048
947.248	0.0163249
947.326	0.0162753
947.405	0.0163380
947.483	0.0161882
947.561	0.0162508
947.639	0.0160647
947.717	0.0162790
947.795	0.0163318
947.873	0.0161954
947.951	0.0163454
948.030	0.0163096
948.108	0.0162444
948.186	0.0162498
948.264	0.0162014
948.342	0.0161857
948.420	0.0161735
948.498	0.0162994
948.576	0.0161649
948.655	0.0162393
948.733	0.0163898
948.811	0.0161333
948.889	0.0161543
948.967	0.0162369
949.045	0.0162057
949.123	0.0161808
949.201	0.0163338
949.280	0.0161692
949.358	0.0162499
949.436	0.0161704
949.514	0.0162262
949.592	0.0161314
949.670	0.0161275
949.748	0.0161777
949.826	0.0161446
949.905	0.0162578
949.983	0.0160497
950.061	0.0161476
950.139	0.0163273
950.217	0.0162399
950.295	0.0160979
950.373	0.0162145
950.451	0.0162239
950.530	0.0162316
950.608	0.0163213
950.686	0.0162527
950.764	0.0160135
950.842	0.0161617
950.920	0.0161958
950.998	0.0161071
951.076	0.0163216
951.155	0.0161373
951.233	0.0162849
951.311	0.0161938
951.389	0.0161121
951.467	0.0162193
951.545	0.0161884
951.623	0.0162584
951.701	0.0161839
951.780	0.0161929
951.858	0.0163131
951.936	0.0163134
952.014	0.0162402
952.092	0.0162881
952.170	0.0162936
952.248	0.0162080
952.326	0.0161627
952.405	0.0162722
952.483	0.0162209
952.561	0.0162084
952.639	0.0162321
952.717	0.0161571
952.795	0.0162044
952.873	0.0162846
952.951	0.0161154
953.030	0.0161842
953.108	0.0162266
953.186	0.0161236
953.264	0.0160836
953.342	0.0161386
953.420	0.0160462
953.498	0.0160197
953.576	0.0161090
953.655	0.0161909
953.733	0.0160798
953.811	0.0161690
953.889	0.0161772
953.967	0.0161787
954.045	0.0162225
954.123	0.0161990
954.201	0.0162749
954.280	0.0162453
954.358	0.0162289
954.436	0.0163170
954.514	0.0162178
954.592	0.0163376
954.670	0.0163010
954.748	0.0164095
954.826	0.0162392
954.905	0.0163266
954.983	0.0162743
955.061	0.0163554
955.139	0.0163685
955.217	0.0164960
955.295	0.0163592
955.373	0.0163885
955.451	0.0163595
955.530	0.0163570
955.608	0.0164354
955.686	0.0163626
955.764	0.0164757
955.842	0.0164584
955.920	0.0163499
955.998	0.0164699
956.076	0.0164831
956.155	0.0164362
956.233	0.0163296
956.311	0.0163081
956.389	0.0165235
956.467	0.0164481
956.545	0.0163338
956.623	0.0163111
956.701	0.0161864
956.780	0.0162658
956.858	0.0163617
956.936	0.0163158
957.014	0.0163395
957.092	0.0162154
957.170	0.0162836
957.248	0.0162917
957.326	0.0162713
957.405	0.0161821
957.483	0.0162159
957.561	0.0161573
957.639	0.0161679
957.717	0.0161739
957.795	0.0162968
957.873	0.0161787
957.951	0.0161520
958.030	0.0160432
958.108	0.0162131
958.186	0.0162442
958.264	0.0162933
958.342	0.0162321
958.420	0.0162183
958.498	0.0161400
958.576	0.0161088
958.655	0.0162180
958.733	0.0160685
958.811	0.0162225
958.889	0.0162012
958.967	0.0161975
959.045	0.0161150
959.123	0.0162567
959.201	0.0161938
959.280	0.0162547
959.358	0.0161799
959.436	0.0162144
959.514	0.0161870
959.592	0.0162284
959.670	0.0161457
959.748	0.0162364
959.826	0.0163050
959.905	0.0162592
