05/17/2022	17:02:09	Ver.	4.1	UNKNOWN
Optical Delay	639.982744	Delta X		0.078125	Sweeps	1	Scan Rate	0/0
Coordinates	Axis 1	NaN	Axis 2	NaN	Axis 3	NaN	Axis 4	NaN	Axis 5	NaN	Axis 6	0.000000
TX Power	0.000000	RX Power	0.000000

639.983	0.0160873
640.061	0.0161232
640.139	0.0160716
640.217	0.0160634
640.295	0.0160168
640.373	0.0160415
640.451	0.0162095
640.530	0.0159708
640.608	0.0161316
640.686	0.0160075
640.764	0.0161542
640.842	0.0160886
640.920	0.0160013
640.998	0.0159440
641.076	0.0160375
641.155	0.0161004
641.233	0.0161769
641.311	0.0160968
641.389	0.0161245
641.467	0.0161004
641.545	0.0159866
641.623	0.0161266
641.701	0.0162058
641.780	0.0160429
641.858	0.0160937
641.936	0.0160190
642.014	0.0161856
642.092	0.0161971
642.170	0.0160854
642.248	0.0160841
642.326	0.0160860
642.405	0.0159832
642.483	0.0160713
642.561	0.0160492
642.639	0.0158992
642.717	0.0160834
642.795	0.0159519
642.873	0.0158537
642.951	0.0160665
643.030	0.0159395
643.108	0.0158832
643.186	0.0159241
643.264	0.0159886
643.342	0.0160043
643.420	0.0159027
643.498	0.0160818
643.576	0.0160352
643.655	0.0159055
643.733	0.0160168
643.811	0.0160419
643.889	0.0160474
643.967	0.0159734
644.045	0.0159756
644.123	0.0162520
644.201	0.0161113
644.280	0.0159751
644.358	0.0159662
644.436	0.0161517
644.514	0.0160986
644.592	0.0160884
644.670	0.0160280
644.748	0.0161308
644.826	0.0160883
644.905	0.0160419
644.983	0.0159563
645.061	0.0159613
645.139	0.0159633
645.217	0.0160303
645.295	0.0160091
645.373	0.0160628
645.451	0.0159977
645.530	0.0159208
645.608	0.0159603
645.686	0.0161899
645.764	0.0161368
645.842	0.0160339
645.920	0.0160950
645.998	0.0160939
646.076	0.0160687
646.155	0.0161613
646.233	0.0160007
646.311	0.0161218
646.389	0.0161442
646.467	0.0161581
646.545	0.0161901
646.623	0.0161519
646.701	0.0161726
646.780	0.0161420
646.858	0.0161086
646.936	0.0161748
647.014	0.0159959
647.092	0.0160265
647.170	0.0160855
647.248	0.0160611
647.326	0.0159196
647.405	0.0160761
647.483	0.0160487
647.561	0.0161367
647.639	0.0160950
647.717	0.0160059
647.795	0.0160621
647.873	0.0160159
647.951	0.0160938
648.030	0.0160136
648.108	0.0160047
648.186	0.0160373
648.264	0.0160316
648.342	0.0160310
648.420	0.0161145
648.498	0.0160206
648.576	0.0160338
648.655	0.0160141
648.733	0.0160339
648.811	0.0161854
648.889	0.0160199
648.967	0.0161203
649.045	0.0161828
649.123	0.0161684
649.201	0.0161340
649.280	0.0161604
649.358	0.0161983
649.436	0.0160569
649.514	0.0161520
649.592	0.0161246
649.670	0.0161115
649.748	0.0160650
649.826	0.0160954
649.905	0.0161101
649.983	0.0160636
650.061	0.0160220
650.139	0.0161895
650.217	0.0160369
650.295	0.0160513
650.373	0.0159490
650.451	0.0160236
650.530	0.0160057
650.608	0.0160241
650.686	0.0160715
650.764	0.0161168
650.842	0.0161151
650.920	0.0160424
650.998	0.0158424
651.076	0.0160522
651.155	0.0160925
651.233	0.0160943
651.311	0.0159924
651.389	0.0159853
651.467	0.0158954
651.545	0.0160750
651.623	0.0160136
651.701	0.0159977
651.780	0.0161302
651.858	0.0160688
651.936	0.0160873
652.014	0.0161078
652.092	0.0158878
652.170	0.0161079
652.248	0.0159736
652.326	0.0159673
652.405	0.0160011
652.483	0.0160444
652.561	0.0159876
652.639	0.0160445
652.717	0.0160604
652.795	0.0160107
652.873	0.0160744
652.951	0.0160021
653.030	0.0160215
653.108	0.0160258
653.186	0.0160892
653.264	0.0161201
653.342	0.0160342
653.420	0.0161284
653.498	0.0159698
653.576	0.0159608
653.655	0.0161325
653.733	0.0160126
653.811	0.0159957
653.889	0.0159543
653.967	0.0159985
654.045	0.0161685
654.123	0.0161408
654.201	0.0160423
654.280	0.0160976
654.358	0.0159334
654.436	0.0161102
654.514	0.0159930
654.592	0.0159605
654.670	0.0159454
654.748	0.0159547
654.826	0.0160271
654.905	0.0160024
654.983	0.0160137
655.061	0.0159804
655.139	0.0161430
655.217	0.0160938
655.295	0.0160812
655.373	0.0158568
655.451	0.0160194
655.530	0.0160796
655.608	0.0161077
655.686	0.0162013
655.764	0.0160608
655.842	0.0160552
655.920	0.0162036
655.998	0.0160822
656.076	0.0162051
656.155	0.0160417
656.233	0.0161218
656.311	0.0162419
656.389	0.0162245
656.467	0.0160681
656.545	0.0161604
656.623	0.0161305
656.701	0.0161397
656.780	0.0161992
656.858	0.0162106
656.936	0.0161230
657.014	0.0160333
657.092	0.0161348
657.170	0.0161391
657.248	0.0161826
657.326	0.0161536
657.405	0.0161644
657.483	0.0161517
657.561	0.0160597
657.639	0.0160526
657.717	0.0161889
657.795	0.0162949
657.873	0.0161996
657.951	0.0161871
658.030	0.0162609
658.108	0.0160675
658.186	0.0161959
658.264	0.0161378
658.342	0.0160390
658.420	0.0161060
658.498	0.0162530
658.576	0.0160627
658.655	0.0160690
658.733	0.0162470
658.811	0.0160483
658.889	0.0160320
658.967	0.0160345
659.045	0.0160285
659.123	0.0161501
659.201	0.0161028
659.280	0.0160372
659.358	0.0161070
659.436	0.0162035
659.514	0.0161417
659.592	0.0160551
659.670	0.0161111
659.748	0.0160516
659.826	0.0160812
659.905	0.0160181
659.983	0.0160107
660.061	0.0162235
660.139	0.0161910
660.217	0.0161465
660.295	0.0160860
660.373	0.0161414
660.451	0.0161927
660.530	0.0160152
660.608	0.0161250
660.686	0.0161218
660.764	0.0160078
660.842	0.0160721
660.920	0.0160658
660.998	0.0160491
661.076	0.0160468
661.155	0.0158937
661.233	0.0159900
661.311	0.0160371
661.389	0.0160019
661.467	0.0159102
661.545	0.0159637
661.623	0.0159616
661.701	0.0159460
661.780	0.0157875
661.858	0.0159860
661.936	0.0158121
662.014	0.0158874
662.092	0.0159840
662.170	0.0159035
662.248	0.0160619
662.326	0.0159000
662.405	0.0159018
662.483	0.0159918
662.561	0.0160483
662.639	0.0161142
662.717	0.0160280
662.795	0.0159963
662.873	0.0159686
662.951	0.0160860
663.030	0.0161800
663.108	0.0161157
663.186	0.0161965
663.264	0.0161141
663.342	0.0161929
663.420	0.0160581
663.498	0.0159811
663.576	0.0161574
663.655	0.0162846
663.733	0.0161476
663.811	0.0161234
663.889	0.0161185
663.967	0.0161390
664.045	0.0161053
664.123	0.0160453
664.201	0.0161551
664.280	0.0161502
664.358	0.0160656
664.436	0.0159705
664.514	0.0159393
664.592	0.0159126
664.670	0.0158775
664.748	0.0159416
664.826	0.0158160
664.905	0.0158578
664.983	0.0158414
665.061	0.0158050
665.139	0.0157660
665.217	0.0157755
665.295	0.0156273
665.373	0.0157204
665.451	0.0158510
665.530	0.0158189
665.608	0.0159920
665.686	0.0159014
665.764	0.0159521
665.842	0.0160581
665.920	0.0160432
665.998	0.0161337
666.076	0.0162261
666.155	0.0163268
666.233	0.0162061
666.311	0.0163103
666.389	0.0163667
666.467	0.0163060
666.545	0.0163421
666.623	0.0163876
666.701	0.0164387
666.780	0.0163223
666.858	0.0163472
666.936	0.0162672
667.014	0.0163412
667.092	0.0162691
667.170	0.0161227
667.248	0.0161586
667.326	0.0161156
667.405	0.0158714
667.483	0.0160098
667.561	0.0158980
667.639	0.0158217
667.717	0.0158134
667.795	0.0155909
667.873	0.0155445
667.951	0.0154441
668.030	0.0155048
668.108	0.0154273
668.186	0.0152930
668.264	0.0154990
668.342	0.0154197
668.420	0.0154017
668.498	0.0154743
668.576	0.0155057
668.655	0.0157492
668.733	0.0157366
668.811	0.0158193
668.889	0.0157961
668.967	0.0161143
669.045	0.0161913
669.123	0.0162215
669.201	0.0162589
669.280	0.0164244
669.358	0.0164413
669.436	0.0166646
669.514	0.0166907
669.592	0.0167771
669.670	0.0167142
669.748	0.0168459
669.826	0.0167870
669.905	0.0168352
669.983	0.0167281
670.061	0.0165672
670.139	0.0166830
670.217	0.0165239
670.295	0.0161662
670.373	0.0162260
670.451	0.0162260
670.530	0.0160631
670.608	0.0158466
670.686	0.0157883
670.764	0.0156979
670.842	0.0155196
670.920	0.0155688
670.998	0.0155774
671.076	0.0154009
671.155	0.0153207
671.233	0.0153242
671.311	0.0153097
671.389	0.0152968
671.467	0.0154697
671.545	0.0153809
671.623	0.0154889
671.701	0.0155219
671.780	0.0155942
671.858	0.0156627
671.936	0.0156969
672.014	0.0156746
672.092	0.0157065
672.170	0.0158812
672.248	0.0158907
672.326	0.0160912
672.405	0.0160396
672.483	0.0161016
672.561	0.0162222
672.639	0.0161740
672.717	0.0163950
672.795	0.0162741
672.873	0.0163197
672.951	0.0164555
673.030	0.0165450
673.108	0.0164873
673.186	0.0166426
673.264	0.0165926
673.342	0.0166745
673.420	0.0165592
673.498	0.0164409
673.576	0.0165783
673.655	0.0165645
673.733	0.0164124
673.811	0.0165346
673.889	0.0164385
673.967	0.0163329
674.045	0.0163725
674.123	0.0162670
674.201	0.0162201
674.280	0.0161409
674.358	0.0160798
674.436	0.0158986
674.514	0.0158443
674.592	0.0157590
674.670	0.0158237
674.748	0.0155299
674.826	0.0155708
674.905	0.0154716
674.983	0.0153973
675.061	0.0152821
675.139	0.0151979
675.217	0.0153210
675.295	0.0151853
675.373	0.0151317
675.451	0.0152495
675.530	0.0152528
675.608	0.0152831
675.686	0.0153139
675.764	0.0154108
675.842	0.0154904
675.920	0.0155013
675.998	0.0156022
676.076	0.0158187
676.155	0.0159412
676.233	0.0159892
676.311	0.0160927
676.389	0.0162640
676.467	0.0165296
676.545	0.0166328
676.623	0.0168367
676.701	0.0168599
676.780	0.0169552
676.858	0.0170288
676.936	0.0170119
677.014	0.0171045
677.092	0.0171348
677.170	0.0169884
677.248	0.0169888
677.326	0.0167888
677.405	0.0167104
677.483	0.0165950
677.561	0.0164517
677.639	0.0164272
677.717	0.0162693
677.795	0.0160719
677.873	0.0157725
677.951	0.0157248
678.030	0.0157434
678.108	0.0153942
678.186	0.0154226
678.264	0.0152587
678.342	0.0151865
678.420	0.0151418
678.498	0.0151337
678.576	0.0151969
678.655	0.0151170
678.733	0.0152738
678.811	0.0153036
678.889	0.0152844
678.967	0.0154566
679.045	0.0154933
679.123	0.0157144
679.201	0.0157961
679.280	0.0159235
679.358	0.0158582
679.436	0.0160914
679.514	0.0161812
679.592	0.0163841
679.670	0.0163890
679.748	0.0164214
679.826	0.0164735
679.905	0.0165987
679.983	0.0166859
680.061	0.0165317
680.139	0.0165715
680.217	0.0166660
680.295	0.0165929
680.373	0.0166090
680.451	0.0166727
680.530	0.0166158
680.608	0.0167134
680.686	0.0165680
680.764	0.0164301
680.842	0.0164890
680.920	0.0163744
680.998	0.0163837
681.076	0.0162587
681.155	0.0162757
681.233	0.0162534
681.311	0.0161549
681.389	0.0161369
681.467	0.0160270
681.545	0.0160513
681.623	0.0159880
681.701	0.0158572
681.780	0.0157429
681.858	0.0156567
681.936	0.0155556
682.014	0.0154593
682.092	0.0153521
682.170	0.0154472
682.248	0.0152775
682.326	0.0151145
682.405	0.0150408
682.483	0.0153101
682.561	0.0151273
682.639	0.0152085
682.717	0.0151524
682.795	0.0153083
682.873	0.0152081
682.951	0.0154791
683.030	0.0155068
683.108	0.0156789
683.186	0.0157998
683.264	0.0158814
683.342	0.0160532
683.420	0.0161292
683.498	0.0164214
683.576	0.0165519
683.655	0.0166161
683.733	0.0167216
683.811	0.0168463
683.889	0.0167944
683.967	0.0169569
684.045	0.0170013
684.123	0.0169450
684.201	0.0169918
684.280	0.0169571
684.358	0.0170344
684.436	0.0171516
684.514	0.0171206
684.592	0.0171316
684.670	0.0170646
684.748	0.0169713
684.826	0.0168707
684.905	0.0168996
684.983	0.0168145
685.061	0.0166795
685.139	0.0167485
685.217	0.0165595
685.295	0.0164536
685.373	0.0162863
685.451	0.0160751
685.530	0.0160696
685.608	0.0159269
685.686	0.0159335
685.764	0.0158128
685.842	0.0156008
685.920	0.0155837
685.998	0.0154428
686.076	0.0153516
686.155	0.0152983
686.233	0.0152898
686.311	0.0152511
686.389	0.0152960
686.467	0.0152776
686.545	0.0153159
686.623	0.0153045
686.701	0.0153976
686.780	0.0154029
686.858	0.0155166
686.936	0.0154891
687.014	0.0154155
687.092	0.0155828
687.170	0.0157308
687.248	0.0156731
687.326	0.0157154
687.405	0.0159108
687.483	0.0157149
687.561	0.0158076
687.639	0.0157567
687.717	0.0159137
687.795	0.0158147
687.873	0.0158754
687.951	0.0156649
688.030	0.0157935
688.108	0.0158718
688.186	0.0157446
688.264	0.0157205
688.342	0.0157275
688.420	0.0158364
688.498	0.0157627
688.576	0.0158518
688.655	0.0158879
688.733	0.0158642
688.811	0.0160561
688.889	0.0161112
688.967	0.0162565
689.045	0.0164918
689.123	0.0164017
689.201	0.0164469
689.280	0.0166213
689.358	0.0167424
689.436	0.0168641
689.514	0.0171282
689.592	0.0171095
689.670	0.0171252
689.748	0.0172210
689.826	0.0173483
689.905	0.0173571
689.983	0.0173753
690.061	0.0172154
690.139	0.0172257
690.217	0.0173335
690.295	0.0173230
690.373	0.0169958
690.451	0.0170635
690.530	0.0170452
690.608	0.0169220
690.686	0.0168307
690.764	0.0165553
690.842	0.0164922
690.920	0.0163464
690.998	0.0161079
691.076	0.0158826
691.155	0.0158135
691.233	0.0154075
691.311	0.0154155
691.389	0.0152483
691.467	0.0151431
691.545	0.0149963
691.623	0.0147095
691.701	0.0147208
691.780	0.0144270
691.858	0.0142978
691.936	0.0143591
692.014	0.0143800
692.092	0.0143649
692.170	0.0143332
692.248	0.0143879
692.326	0.0144981
692.405	0.0145554
692.483	0.0146395
692.561	0.0148041
692.639	0.0151744
692.717	0.0153381
692.795	0.0153662
692.873	0.0156057
692.951	0.0157536
693.030	0.0159439
693.108	0.0162025
693.186	0.0163895
693.264	0.0163713
693.342	0.0167289
693.420	0.0167041
693.498	0.0167096
693.576	0.0166463
693.655	0.0167984
693.733	0.0167454
693.811	0.0167078
693.889	0.0167107
693.967	0.0166519
694.045	0.0165071
694.123	0.0162589
694.201	0.0163100
694.280	0.0161738
694.358	0.0160739
694.436	0.0159500
694.514	0.0158526
694.592	0.0158090
694.670	0.0158699
694.748	0.0155923
694.826	0.0155608
694.905	0.0157235
694.983	0.0157527
695.061	0.0157393
695.139	0.0159446
695.217	0.0160059
695.295	0.0161092
695.373	0.0161855
695.451	0.0163582
695.530	0.0164715
695.608	0.0164959
695.686	0.0166281
695.764	0.0168010
695.842	0.0170321
695.920	0.0171526
695.998	0.0172589
696.076	0.0171841
696.155	0.0172298
696.233	0.0173572
696.311	0.0172439
696.389	0.0172511
696.467	0.0170724
696.545	0.0169912
696.623	0.0170514
696.701	0.0167984
696.780	0.0165725
696.858	0.0164117
696.936	0.0160969
697.014	0.0160328
697.092	0.0159733
697.170	0.0156345
697.248	0.0154998
697.326	0.0152082
697.405	0.0151009
697.483	0.0150854
697.561	0.0149935
697.639	0.0148358
697.717	0.0149058
697.795	0.0148673
697.873	0.0148003
697.951	0.0146249
698.030	0.0149061
698.108	0.0149500
698.186	0.0149073
698.264	0.0149216
698.342	0.0151382
698.420	0.0151599
698.498	0.0151794
698.576	0.0153696
698.655	0.0153149
698.733	0.0153645
698.811	0.0152094
698.889	0.0154105
698.967	0.0155090
699.045	0.0153757
699.123	0.0153799
699.201	0.0157214
699.280	0.0155062
699.358	0.0155137
699.436	0.0156682
699.514	0.0156350
699.592	0.0157580
699.670	0.0158927
699.748	0.0159215
699.826	0.0159962
699.905	0.0162269
699.983	0.0162856
700.061	0.0163544
700.139	0.0164653
700.217	0.0166507
700.295	0.0168918
700.373	0.0168581
700.451	0.0169460
700.530	0.0171748
700.608	0.0172565
700.686	0.0170913
700.764	0.0172870
700.842	0.0172646
700.920	0.0172780
700.998	0.0172309
701.076	0.0172549
701.155	0.0173574
701.233	0.0172524
701.311	0.0171161
701.389	0.0170233
701.467	0.0169084
701.545	0.0169129
701.623	0.0168739
701.701	0.0167098
701.780	0.0168177
701.858	0.0166871
701.936	0.0165633
702.014	0.0164772
702.092	0.0162409
702.170	0.0163049
702.248	0.0161625
702.326	0.0160880
702.405	0.0159820
702.483	0.0160387
702.561	0.0157948
702.639	0.0156295
702.717	0.0154923
702.795	0.0153957
702.873	0.0152806
702.951	0.0151903
703.030	0.0151974
703.108	0.0148311
703.186	0.0148335
703.264	0.0148343
703.342	0.0147665
703.420	0.0147702
703.498	0.0148148
703.576	0.0147803
703.655	0.0149168
703.733	0.0149873
703.811	0.0149883
703.889	0.0152542
703.967	0.0153465
704.045	0.0153831
704.123	0.0155011
704.201	0.0156085
704.280	0.0155894
704.358	0.0159456
704.436	0.0160485
704.514	0.0162115
704.592	0.0163513
704.670	0.0165418
704.748	0.0167029
704.826	0.0167099
704.905	0.0166784
704.983	0.0169571
705.061	0.0169630
705.139	0.0171651
705.217	0.0170137
705.295	0.0170004
705.373	0.0168870
705.451	0.0168635
705.530	0.0167805
705.608	0.0166824
705.686	0.0165495
705.764	0.0164137
705.842	0.0163431
705.920	0.0161963
705.998	0.0159014
706.076	0.0159605
706.155	0.0157620
706.233	0.0157825
706.311	0.0157148
706.389	0.0155289
706.467	0.0154568
706.545	0.0156049
706.623	0.0156313
706.701	0.0156647
706.780	0.0155779
706.858	0.0157775
706.936	0.0159142
707.014	0.0161959
707.092	0.0161556
707.170	0.0163268
707.248	0.0163802
707.326	0.0164574
707.405	0.0167056
707.483	0.0167462
707.561	0.0167841
707.639	0.0168317
707.717	0.0169550
707.795	0.0169750
707.873	0.0169207
707.951	0.0169729
708.030	0.0167259
708.108	0.0165973
708.186	0.0165948
708.264	0.0164589
708.342	0.0161138
708.420	0.0162216
708.498	0.0159261
708.576	0.0157790
708.655	0.0156828
708.733	0.0155064
708.811	0.0153410
708.889	0.0152608
708.967	0.0151251
709.045	0.0150911
709.123	0.0149915
709.201	0.0149265
709.280	0.0148283
709.358	0.0149161
709.436	0.0150273
709.514	0.0149843
709.592	0.0150420
709.670	0.0151722
709.748	0.0153919
709.826	0.0154047
709.905	0.0155659
709.983	0.0157151
710.061	0.0159681
710.139	0.0161569
710.217	0.0162807
710.295	0.0165202
710.373	0.0166084
710.451	0.0166969
710.530	0.0166988
710.608	0.0168814
710.686	0.0170171
710.764	0.0169711
710.842	0.0169544
710.920	0.0169782
710.998	0.0169058
711.076	0.0168706
711.155	0.0167801
711.233	0.0166485
711.311	0.0165475
711.389	0.0166243
711.467	0.0163810
711.545	0.0162385
711.623	0.0161264
711.701	0.0161040
711.780	0.0160563
711.858	0.0159081
711.936	0.0158578
712.014	0.0160097
712.092	0.0158828
712.170	0.0158147
712.248	0.0158971
712.326	0.0159090
712.405	0.0160088
712.483	0.0160751
712.561	0.0160807
712.639	0.0161475
712.717	0.0162376
712.795	0.0162143
712.873	0.0163634
712.951	0.0163158
713.030	0.0163789
713.108	0.0165507
713.186	0.0163358
713.264	0.0163403
713.342	0.0163255
713.420	0.0162122
713.498	0.0162641
713.576	0.0160724
713.655	0.0160065
713.733	0.0158281
713.811	0.0158035
713.889	0.0158284
713.967	0.0156729
714.045	0.0156426
714.123	0.0155377
714.201	0.0152677
714.280	0.0153561
714.358	0.0153855
714.436	0.0152846
714.514	0.0153619
714.592	0.0153796
714.670	0.0153624
714.748	0.0153777
714.826	0.0155458
714.905	0.0158038
714.983	0.0156103
715.061	0.0158035
715.139	0.0158105
715.217	0.0159447
715.295	0.0160250
715.373	0.0159783
715.451	0.0160439
715.530	0.0162569
715.608	0.0161441
715.686	0.0161540
715.764	0.0162283
715.842	0.0162727
715.920	0.0162667
715.998	0.0164193
716.076	0.0163129
716.155	0.0164245
716.233	0.0166322
716.311	0.0165322
716.389	0.0166041
716.467	0.0165895
716.545	0.0166578
716.623	0.0167786
716.701	0.0168528
716.780	0.0168079
716.858	0.0168297
716.936	0.0168646
717.014	0.0167513
717.092	0.0168089
717.170	0.0167285
717.248	0.0165408
717.326	0.0163448
717.405	0.0164815
717.483	0.0163477
717.561	0.0160864
717.639	0.0158661
717.717	0.0158316
717.795	0.0157893
717.873	0.0155937
717.951	0.0155961
718.030	0.0155185
718.108	0.0154781
718.186	0.0153614
718.264	0.0153350
718.342	0.0153436
718.420	0.0154050
718.498	0.0155415
718.576	0.0156133
718.655	0.0156672
718.733	0.0156696
718.811	0.0158487
718.889	0.0158225
718.967	0.0159882
719.045	0.0161041
719.123	0.0159833
719.201	0.0160155
719.280	0.0162321
719.358	0.0160826
719.436	0.0161337
719.514	0.0161308
719.592	0.0161337
719.670	0.0161656
719.748	0.0159852
719.826	0.0161710
719.905	0.0161208
719.983	0.0161662
720.061	0.0160310
720.139	0.0161201
720.217	0.0161134
720.295	0.0162077
720.373	0.0160854
720.451	0.0161176
720.530	0.0160634
720.608	0.0160599
720.686	0.0161636
720.764	0.0159939
720.842	0.0161655
720.920	0.0161739
720.998	0.0161581
721.076	0.0158310
721.155	0.0160522
721.233	0.0160400
721.311	0.0161619
721.389	0.0160220
721.467	0.0158794
721.545	0.0158088
721.623	0.0158378
721.701	0.0157610
721.780	0.0157516
721.858	0.0157178
721.936	0.0156581
722.014	0.0156399
722.092	0.0156785
722.170	0.0155518
722.248	0.0156253
722.326	0.0156599
722.405	0.0157544
722.483	0.0156593
722.561	0.0156729
722.639	0.0157843
722.717	0.0158174
722.795	0.0157627
722.873	0.0159577
722.951	0.0160336
723.030	0.0160152
723.108	0.0160675
723.186	0.0161362
723.264	0.0161572
723.342	0.0162021
723.420	0.0162850
723.498	0.0163393
723.576	0.0163618
723.655	0.0166217
723.733	0.0166184
723.811	0.0166801
723.889	0.0166184
723.967	0.0166624
724.045	0.0166855
724.123	0.0165388
724.201	0.0166109
724.280	0.0165958
724.358	0.0165331
724.436	0.0164126
724.514	0.0164435
724.592	0.0163687
724.670	0.0165154
724.748	0.0162420
724.826	0.0161817
724.905	0.0162262
724.983	0.0161446
725.061	0.0161549
725.139	0.0160069
725.217	0.0158289
725.295	0.0159785
725.373	0.0160071
725.451	0.0159936
725.530	0.0157796
725.608	0.0158087
725.686	0.0158819
725.764	0.0155883
725.842	0.0157294
725.920	0.0156952
725.998	0.0156625
726.076	0.0156465
726.155	0.0155197
726.233	0.0155964
726.311	0.0155727
726.389	0.0156288
726.467	0.0155511
726.545	0.0156877
726.623	0.0157551
726.701	0.0156299
726.780	0.0156818
726.858	0.0157239
726.936	0.0158491
727.014	0.0159278
727.092	0.0160516
727.170	0.0158481
727.248	0.0158625
727.326	0.0160876
727.405	0.0161689
727.483	0.0161667
727.561	0.0161179
727.639	0.0162947
727.717	0.0161578
727.795	0.0160948
727.873	0.0162016
727.951	0.0160990
728.030	0.0162682
728.108	0.0162444
728.186	0.0161997
728.264	0.0162757
728.342	0.0162440
728.420	0.0161823
728.498	0.0161568
728.576	0.0162197
728.655	0.0160993
728.733	0.0160747
728.811	0.0162185
728.889	0.0161692
728.967	0.0160100
729.045	0.0159727
729.123	0.0159547
729.201	0.0159342
729.280	0.0158961
729.358	0.0160074
729.436	0.0158569
729.514	0.0158387
729.592	0.0157794
729.670	0.0159644
729.748	0.0159882
729.826	0.0160369
729.905	0.0159622
729.983	0.0159016
730.061	0.0158568
730.139	0.0159338
730.217	0.0159631
730.295	0.0159357
730.373	0.0159803
730.451	0.0160821
730.530	0.0159435
730.608	0.0160629
730.686	0.0160997
730.764	0.0160461
730.842	0.0161417
730.920	0.0163498
730.998	0.0162623
731.076	0.0162730
731.155	0.0162506
731.233	0.0163293
731.311	0.0165073
731.389	0.0166566
731.467	0.0165986
731.545	0.0166367
731.623	0.0166358
731.701	0.0166658
731.780	0.0167397
731.858	0.0167039
731.936	0.0166860
732.014	0.0167124
732.092	0.0164887
732.170	0.0164229
732.248	0.0163606
732.326	0.0161794
732.405	0.0162502
732.483	0.0161304
732.561	0.0160690
732.639	0.0160262
732.717	0.0159230
732.795	0.0158713
732.873	0.0158989
732.951	0.0158002
733.030	0.0158414
733.108	0.0156789
733.186	0.0156303
733.264	0.0157101
733.342	0.0155935
733.420	0.0158339
733.498	0.0156322
733.576	0.0158321
733.655	0.0157634
733.733	0.0157225
733.811	0.0156771
733.889	0.0158541
733.967	0.0157964
734.045	0.0159612
734.123	0.0159996
734.201	0.0159156
734.280	0.0159433
734.358	0.0160056
734.436	0.0161253
734.514	0.0160828
734.592	0.0163001
734.670	0.0160801
734.748	0.0161777
734.826	0.0161225
734.905	0.0162836
734.983	0.0163129
735.061	0.0162757
735.139	0.0162756
735.217	0.0162040
735.295	0.0163311
735.373	0.0163615
735.451	0.0163096
735.530	0.0161774
735.608	0.0162590
735.686	0.0163219
735.764	0.0161625
735.842	0.0161603
735.920	0.0162688
735.998	0.0162648
736.076	0.0162038
736.155	0.0163583
736.233	0.0162521
736.311	0.0162160
736.389	0.0162216
736.467	0.0160561
736.545	0.0161000
736.623	0.0160289
736.701	0.0160111
736.780	0.0160021
736.858	0.0157027
736.936	0.0157735
737.014	0.0157251
737.092	0.0158001
737.170	0.0156599
737.248	0.0157442
737.326	0.0156543
737.405	0.0157804
737.483	0.0156304
737.561	0.0156313
737.639	0.0155180
737.717	0.0156342
737.795	0.0157194
737.873	0.0157933
737.951	0.0157953
738.030	0.0159165
738.108	0.0160326
738.186	0.0160168
738.264	0.0160460
738.342	0.0160469
738.420	0.0161680
738.498	0.0160984
738.576	0.0161208
738.655	0.0160235
738.733	0.0160890
738.811	0.0160281
738.889	0.0160783
738.967	0.0161642
739.045	0.0161081
739.123	0.0159959
739.201	0.0161027
739.280	0.0161676
739.358	0.0161749
739.436	0.0161189
739.514	0.0162187
739.592	0.0162846
739.670	0.0163548
739.748	0.0161221
739.826	0.0163516
739.905	0.0164069
739.983	0.0164156
740.061	0.0163428
740.139	0.0163084
740.217	0.0163804
740.295	0.0162614
740.373	0.0163019
740.451	0.0162399
740.530	0.0160564
740.608	0.0160102
740.686	0.0159369
740.764	0.0159510
740.842	0.0157697
740.920	0.0158526
740.998	0.0157520
741.076	0.0156350
741.155	0.0156132
741.233	0.0155994
741.311	0.0154420
741.389	0.0155003
741.467	0.0155521
741.545	0.0154148
741.623	0.0154851
741.701	0.0155894
741.780	0.0156652
741.858	0.0156880
741.936	0.0157683
742.014	0.0157498
742.092	0.0157282
742.170	0.0158176
742.248	0.0159485
742.326	0.0160130
742.405	0.0161011
742.483	0.0160155
742.561	0.0161896
742.639	0.0162962
742.717	0.0161842
742.795	0.0162444
742.873	0.0161333
742.951	0.0161765
743.030	0.0161578
743.108	0.0160440
743.186	0.0159526
743.264	0.0160143
743.342	0.0160081
743.420	0.0159821
743.498	0.0159441
743.576	0.0158561
743.655	0.0158572
743.733	0.0158590
743.811	0.0158715
743.889	0.0158236
743.967	0.0159074
744.045	0.0157692
744.123	0.0157433
744.201	0.0159985
744.280	0.0159486
744.358	0.0159917
744.436	0.0160531
744.514	0.0160105
744.592	0.0161111
744.670	0.0161488
744.748	0.0161515
744.826	0.0161622
744.905	0.0160384
744.983	0.0159779
745.061	0.0162189
745.139	0.0161199
745.217	0.0159202
745.295	0.0160771
745.373	0.0161086
745.451	0.0159283
745.530	0.0159159
745.608	0.0159505
745.686	0.0157617
745.764	0.0159753
745.842	0.0157862
745.920	0.0158601
745.998	0.0157612
746.076	0.0159918
746.155	0.0159901
746.233	0.0158788
746.311	0.0160300
746.389	0.0159750
746.467	0.0160769
746.545	0.0161208
746.623	0.0161781
746.701	0.0162673
746.780	0.0161272
746.858	0.0161887
746.936	0.0161025
747.014	0.0162405
747.092	0.0163908
747.170	0.0163637
747.248	0.0163684
747.326	0.0164277
747.405	0.0163483
747.483	0.0164253
747.561	0.0163497
747.639	0.0163578
747.717	0.0162891
747.795	0.0163491
747.873	0.0163392
747.951	0.0162906
748.030	0.0162270
748.108	0.0160040
748.186	0.0161150
748.264	0.0160151
748.342	0.0158569
748.420	0.0158783
748.498	0.0158070
748.576	0.0158292
748.655	0.0158036
748.733	0.0157663
748.811	0.0156773
748.889	0.0155527
748.967	0.0155537
749.045	0.0154604
749.123	0.0155569
749.201	0.0155376
749.280	0.0155779
749.358	0.0156124
749.436	0.0155737
749.514	0.0157770
749.592	0.0159141
749.670	0.0159116
749.748	0.0159451
749.826	0.0161273
749.905	0.0161478
749.983	0.0162061
750.061	0.0162202
750.139	0.0164351
750.217	0.0164335
750.295	0.0163140
750.373	0.0162258
750.451	0.0163412
750.530	0.0163825
750.608	0.0161938
750.686	0.0162480
750.764	0.0162051
750.842	0.0161486
750.920	0.0160522
750.998	0.0160502
751.076	0.0160043
751.155	0.0160034
751.233	0.0160555
751.311	0.0160625
751.389	0.0161115
751.467	0.0160511
751.545	0.0159713
751.623	0.0160909
751.701	0.0161227
751.780	0.0160986
751.858	0.0161417
751.936	0.0160735
752.014	0.0161320
752.092	0.0160411
752.170	0.0161116
752.248	0.0162959
752.326	0.0161395
752.405	0.0160813
752.483	0.0161940
752.561	0.0161221
752.639	0.0160651
752.717	0.0160711
752.795	0.0162093
752.873	0.0159058
752.951	0.0159299
753.030	0.0159919
753.108	0.0159446
753.186	0.0159311
753.264	0.0159515
753.342	0.0158302
753.420	0.0158727
753.498	0.0159930
753.576	0.0159309
753.655	0.0160161
753.733	0.0160719
753.811	0.0160529
753.889	0.0162411
753.967	0.0162357
754.045	0.0162401
754.123	0.0163120
754.201	0.0161916
754.280	0.0163323
754.358	0.0163976
754.436	0.0162443
754.514	0.0163361
754.592	0.0162741
754.670	0.0161686
754.748	0.0163910
754.826	0.0163818
754.905	0.0161078
754.983	0.0161813
755.061	0.0161321
755.139	0.0162093
755.217	0.0161366
755.295	0.0162355
755.373	0.0161526
755.451	0.0161845
755.530	0.0162260
755.608	0.0161421
755.686	0.0161321
755.764	0.0160966
755.842	0.0161588
755.920	0.0163187
755.998	0.0162309
756.076	0.0161049
756.155	0.0161095
756.233	0.0161939
756.311	0.0159782
756.389	0.0159350
756.467	0.0158794
756.545	0.0158304
756.623	0.0158183
756.701	0.0158604
756.780	0.0156757
756.858	0.0156362
756.936	0.0156066
757.014	0.0158514
757.092	0.0156238
757.170	0.0157558
757.248	0.0156535
757.326	0.0158995
757.405	0.0158540
757.483	0.0158912
757.561	0.0160767
757.639	0.0161358
757.717	0.0162969
757.795	0.0162213
757.873	0.0163038
757.951	0.0162998
758.030	0.0164278
758.108	0.0164615
758.186	0.0162592
758.264	0.0162115
758.342	0.0163549
758.420	0.0162360
758.498	0.0161264
758.576	0.0161958
758.655	0.0161454
758.733	0.0159324
758.811	0.0160319
758.889	0.0159993
758.967	0.0159744
759.045	0.0158078
759.123	0.0157939
759.201	0.0159129
759.280	0.0159692
759.358	0.0159827
759.436	0.0159136
759.514	0.0160335
759.592	0.0159752
759.670	0.0159932
759.748	0.0159745
759.826	0.0161316
759.905	0.0162239
759.983	0.0160817
760.061	0.0161226
760.139	0.0161428
760.217	0.0162376
760.295	0.0162839
760.373	0.0160863
760.451	0.0161022
760.530	0.0161015
760.608	0.0160949
760.686	0.0159773
760.764	0.0158983
760.842	0.0159673
760.920	0.0160416
760.998	0.0159800
761.076	0.0158725
761.155	0.0158315
761.233	0.0158354
761.311	0.0157604
761.389	0.0158965
761.467	0.0161027
761.545	0.0158520
761.623	0.0159547
761.701	0.0159321
761.780	0.0160332
761.858	0.0160104
761.936	0.0159959
762.014	0.0159738
762.092	0.0159956
762.170	0.0159834
762.248	0.0161309
762.326	0.0160356
762.405	0.0158444
762.483	0.0159356
762.561	0.0159718
762.639	0.0160477
762.717	0.0160711
762.795	0.0159219
762.873	0.0160647
762.951	0.0159620
763.030	0.0160420
763.108	0.0160773
763.186	0.0162252
763.264	0.0162021
763.342	0.0162872
763.420	0.0162608
763.498	0.0162069
763.576	0.0162251
763.655	0.0161869
763.733	0.0161884
763.811	0.0162041
763.889	0.0160741
763.967	0.0159888
764.045	0.0159766
764.123	0.0159874
764.201	0.0157908
764.280	0.0158511
764.358	0.0158209
764.436	0.0157105
764.514	0.0155606
764.592	0.0157066
764.670	0.0156436
764.748	0.0156346
764.826	0.0155533
764.905	0.0156194
764.983	0.0156004
765.061	0.0157544
765.139	0.0156506
765.217	0.0157558
765.295	0.0158024
765.373	0.0159042
765.451	0.0158774
765.530	0.0159140
765.608	0.0162559
765.686	0.0161423
765.764	0.0160482
765.842	0.0161509
765.920	0.0162543
765.998	0.0160576
766.076	0.0161023
766.155	0.0162148
766.233	0.0162084
766.311	0.0160283
766.389	0.0158588
766.467	0.0159753
766.545	0.0158762
766.623	0.0156870
766.701	0.0157504
766.780	0.0158132
766.858	0.0156262
766.936	0.0156413
767.014	0.0155495
767.092	0.0157059
767.170	0.0157156
767.248	0.0156860
767.326	0.0155768
767.405	0.0157161
767.483	0.0158203
767.561	0.0158065
767.639	0.0158221
767.717	0.0158306
767.795	0.0160624
767.873	0.0157656
767.951	0.0159743
768.030	0.0160397
768.108	0.0160102
768.186	0.0161013
768.264	0.0158720
768.342	0.0160232
768.420	0.0160915
768.498	0.0159702
768.576	0.0160652
768.655	0.0160085
768.733	0.0160416
768.811	0.0161074
768.889	0.0159051
768.967	0.0161773
769.045	0.0161179
769.123	0.0160849
769.201	0.0161005
769.280	0.0160226
769.358	0.0160529
769.436	0.0160516
769.514	0.0160936
769.592	0.0161602
769.670	0.0160786
769.748	0.0161266
769.826	0.0160988
769.905	0.0161048
769.983	0.0158954
770.061	0.0161583
770.139	0.0161298
770.217	0.0159765
770.295	0.0159705
770.373	0.0160364
770.451	0.0159758
770.530	0.0159506
770.608	0.0160110
770.686	0.0159454
770.764	0.0160358
770.842	0.0161021
770.920	0.0161163
770.998	0.0161049
771.076	0.0160847
771.155	0.0160331
771.233	0.0160751
771.311	0.0160542
771.389	0.0159237
771.467	0.0160447
771.545	0.0161234
771.623	0.0159402
771.701	0.0158553
771.780	0.0160096
771.858	0.0160586
771.936	0.0159631
772.014	0.0156948
772.092	0.0157658
772.170	0.0157908
772.248	0.0157978
772.326	0.0158443
772.405	0.0159461
772.483	0.0157992
772.561	0.0158374
772.639	0.0159087
772.717	0.0158700
772.795	0.0159827
772.873	0.0159376
772.951	0.0161275
773.030	0.0159612
773.108	0.0161053
773.186	0.0161895
773.264	0.0161691
773.342	0.0161980
773.420	0.0163248
773.498	0.0164105
773.576	0.0162159
773.655	0.0163987
773.733	0.0164331
773.811	0.0164807
773.889	0.0163810
773.967	0.0163849
774.045	0.0163819
774.123	0.0163056
774.201	0.0163206
774.280	0.0162151
774.358	0.0162019
774.436	0.0161231
774.514	0.0159387
774.592	0.0160117
774.670	0.0161245
774.748	0.0158982
774.826	0.0157597
774.905	0.0158426
774.983	0.0157890
775.061	0.0160137
775.139	0.0157752
775.217	0.0157818
775.295	0.0160783
775.373	0.0159005
775.451	0.0159377
775.530	0.0158585
775.608	0.0160284
775.686	0.0160036
775.764	0.0159720
775.842	0.0159765
775.920	0.0160930
775.998	0.0161221
776.076	0.0160679
776.155	0.0161639
776.233	0.0160762
776.311	0.0159823
776.389	0.0160324
776.467	0.0161755
776.545	0.0161588
776.623	0.0159391
776.701	0.0161824
776.780	0.0162457
776.858	0.0160838
776.936	0.0160859
777.014	0.0161521
777.092	0.0161414
777.170	0.0161897
777.248	0.0162331
777.326	0.0162131
777.405	0.0162110
777.483	0.0161810
777.561	0.0160601
777.639	0.0160712
777.717	0.0162051
777.795	0.0160328
777.873	0.0160085
777.951	0.0161665
778.030	0.0162601
778.108	0.0161539
778.186	0.0159915
778.264	0.0159381
778.342	0.0160390
778.420	0.0160728
778.498	0.0160305
778.576	0.0158450
778.655	0.0159477
778.733	0.0159249
778.811	0.0159441
778.889	0.0159980
778.967	0.0159859
779.045	0.0158596
779.123	0.0159875
779.201	0.0159224
779.280	0.0158642
779.358	0.0159343
779.436	0.0159920
779.514	0.0160197
779.592	0.0158514
779.670	0.0160962
779.748	0.0159330
779.826	0.0158463
779.905	0.0159509
779.983	0.0159068
780.061	0.0158701
780.139	0.0160268
780.217	0.0160510
780.295	0.0159010
780.373	0.0159969
780.451	0.0162101
780.530	0.0162240
780.608	0.0162557
780.686	0.0163602
780.764	0.0163261
780.842	0.0162583
780.920	0.0163380
780.998	0.0164957
781.076	0.0163843
781.155	0.0163174
781.233	0.0163885
781.311	0.0165079
781.389	0.0163912
781.467	0.0164489
781.545	0.0163876
781.623	0.0163772
781.701	0.0162112
781.780	0.0163792
781.858	0.0161270
781.936	0.0160554
782.014	0.0161550
782.092	0.0160767
782.170	0.0160094
782.248	0.0159943
782.326	0.0160564
782.405	0.0158889
782.483	0.0159091
782.561	0.0159300
782.639	0.0158395
782.717	0.0156264
782.795	0.0156628
782.873	0.0158086
782.951	0.0156531
783.030	0.0157713
783.108	0.0157423
783.186	0.0158176
783.264	0.0158393
783.342	0.0158527
783.420	0.0159072
783.498	0.0160300
783.576	0.0160364
783.655	0.0159513
783.733	0.0159929
783.811	0.0161247
783.889	0.0161275
783.967	0.0160363
784.045	0.0162140
784.123	0.0162255
784.201	0.0160608
784.280	0.0160751
784.358	0.0160823
784.436	0.0160500
784.514	0.0161851
784.592	0.0160876
784.670	0.0161639
784.748	0.0162547
784.826	0.0161591
784.905	0.0160864
784.983	0.0163161
785.061	0.0162152
785.139	0.0162849
785.217	0.0163752
785.295	0.0162270
785.373	0.0161229
785.451	0.0162496
785.530	0.0161904
785.608	0.0162111
785.686	0.0162251
785.764	0.0162425
785.842	0.0162452
785.920	0.0164137
785.998	0.0161555
786.076	0.0163297
786.155	0.0162939
786.233	0.0162341
786.311	0.0162716
786.389	0.0163248
786.467	0.0163154
786.545	0.0161942
786.623	0.0162033
786.701	0.0162076
786.780	0.0162679
786.858	0.0161869
786.936	0.0162247
787.014	0.0162217
787.092	0.0162449
787.170	0.0163226
787.248	0.0160497
787.326	0.0162093
787.405	0.0162160
787.483	0.0161293
787.561	0.0161506
787.639	0.0160603
787.717	0.0158810
787.795	0.0160361
787.873	0.0160015
787.951	0.0159081
788.030	0.0158389
788.108	0.0157423
788.186	0.0157539
788.264	0.0158317
788.342	0.0157352
788.420	0.0156699
788.498	0.0155698
788.576	0.0157745
788.655	0.0156615
788.733	0.0157443
788.811	0.0158460
788.889	0.0158071
788.967	0.0158650
789.045	0.0157961
789.123	0.0158066
789.201	0.0159039
789.280	0.0160012
789.358	0.0160531
789.436	0.0160731
789.514	0.0159766
789.592	0.0158257
789.670	0.0159548
789.748	0.0160174
789.826	0.0160037
789.905	0.0159186
789.983	0.0160876
790.061	0.0159785
790.139	0.0162053
790.217	0.0160619
790.295	0.0159595
790.373	0.0159676
790.451	0.0161559
790.530	0.0160084
790.608	0.0159768
790.686	0.0160483
790.764	0.0161631
790.842	0.0160717
790.920	0.0161436
790.998	0.0160248
791.076	0.0161201
791.155	0.0161153
791.233	0.0161285
791.311	0.0160102
791.389	0.0161916
791.467	0.0159828
791.545	0.0160647
791.623	0.0159780
791.701	0.0160959
791.780	0.0162374
791.858	0.0162448
791.936	0.0160898
792.014	0.0162135
792.092	0.0161111
792.170	0.0161670
792.248	0.0160405
792.326	0.0163279
792.405	0.0162897
792.483	0.0161977
792.561	0.0162569
792.639	0.0161400
792.717	0.0162561
792.795	0.0163227
792.873	0.0162502
792.951	0.0163405
793.030	0.0160799
793.108	0.0161169
793.186	0.0160951
793.264	0.0161362
793.342	0.0161099
793.420	0.0161246
793.498	0.0160970
793.576	0.0158553
793.655	0.0158986
793.733	0.0158049
793.811	0.0158056
793.889	0.0158952
793.967	0.0157455
794.045	0.0158140
794.123	0.0156537
794.201	0.0156048
794.280	0.0156054
794.358	0.0155612
794.436	0.0155899
794.514	0.0157170
794.592	0.0156751
794.670	0.0156076
794.748	0.0155985
794.826	0.0157205
794.905	0.0156210
794.983	0.0158004
795.061	0.0158851
795.139	0.0157401
795.217	0.0158833
795.295	0.0159446
795.373	0.0157438
795.451	0.0158627
795.530	0.0158745
795.608	0.0157915
795.686	0.0157677
795.764	0.0158214
795.842	0.0157552
795.920	0.0157811
795.998	0.0159426
796.076	0.0159360
796.155	0.0159174
796.233	0.0158807
796.311	0.0159705
796.389	0.0160483
796.467	0.0160590
796.545	0.0161729
796.623	0.0162012
796.701	0.0160574
796.780	0.0161382
796.858	0.0161227
796.936	0.0162839
797.014	0.0163004
797.092	0.0162988
797.170	0.0163770
797.248	0.0164389
797.326	0.0163966
797.405	0.0164189
797.483	0.0164599
797.561	0.0163840
797.639	0.0163473
797.717	0.0163045
797.795	0.0164674
797.873	0.0164607
797.951	0.0163512
798.030	0.0162669
798.108	0.0162691
798.186	0.0161724
798.264	0.0163015
798.342	0.0162076
798.420	0.0161259
798.498	0.0159452
798.576	0.0160463
798.655	0.0162038
798.733	0.0160264
798.811	0.0159605
798.889	0.0159996
798.967	0.0160090
799.045	0.0159331
799.123	0.0158873
799.201	0.0157568
799.280	0.0158445
799.358	0.0160046
799.436	0.0158090
799.514	0.0158396
799.592	0.0155951
799.670	0.0156578
799.748	0.0157391
799.826	0.0158077
799.905	0.0155823
799.983	0.0157546
800.061	0.0157088
800.139	0.0157703
800.217	0.0157983
800.295	0.0158446
800.373	0.0159938
800.451	0.0158952
800.530	0.0159018
800.608	0.0159336
800.686	0.0160491
800.764	0.0159232
800.842	0.0160439
800.920	0.0161115
800.998	0.0160990
801.076	0.0161119
801.155	0.0162840
801.233	0.0161737
801.311	0.0162712
801.389	0.0161833
801.467	0.0162709
801.545	0.0163120
801.623	0.0162319
801.701	0.0162625
801.780	0.0162062
801.858	0.0163607
801.936	0.0163113
802.014	0.0163687
802.092	0.0163094
802.170	0.0162314
802.248	0.0162128
802.326	0.0161366
802.405	0.0161980
802.483	0.0161953
802.561	0.0162223
802.639	0.0161235
802.717	0.0161797
802.795	0.0160260
802.873	0.0161436
802.951	0.0161447
803.030	0.0161047
803.108	0.0160416
803.186	0.0160238
803.264	0.0162993
803.342	0.0160130
803.420	0.0161925
803.498	0.0161120
803.576	0.0161290
803.655	0.0160999
803.733	0.0160870
803.811	0.0161732
803.889	0.0161904
803.967	0.0161066
804.045	0.0161848
804.123	0.0160507
804.201	0.0160535
804.280	0.0160662
804.358	0.0161775
804.436	0.0161508
804.514	0.0161710
804.592	0.0160136
804.670	0.0161242
804.748	0.0161252
804.826	0.0160301
804.905	0.0161566
804.983	0.0160422
805.061	0.0160036
805.139	0.0161226
805.217	0.0161109
805.295	0.0160044
805.373	0.0159997
805.451	0.0160307
805.530	0.0159500
805.608	0.0159148
805.686	0.0158757
805.764	0.0157726
805.842	0.0158733
805.920	0.0159166
805.998	0.0158246
806.076	0.0160673
806.155	0.0160230
806.233	0.0160297
806.311	0.0159415
806.389	0.0160321
806.467	0.0161227
806.545	0.0162583
806.623	0.0161326
806.701	0.0161157
806.780	0.0162385
806.858	0.0162817
806.936	0.0163078
807.014	0.0163370
807.092	0.0162218
807.170	0.0162295
807.248	0.0162712
807.326	0.0162721
807.405	0.0163681
807.483	0.0163760
807.561	0.0161857
807.639	0.0162460
807.717	0.0161552
807.795	0.0162353
807.873	0.0162365
807.951	0.0162494
808.030	0.0162098
808.108	0.0160702
808.186	0.0161744
808.264	0.0162424
808.342	0.0162735
808.420	0.0161775
808.498	0.0162733
808.576	0.0161132
808.655	0.0163388
808.733	0.0162562
808.811	0.0162690
808.889	0.0164912
808.967	0.0164477
809.045	0.0164042
809.123	0.0163385
809.201	0.0164071
809.280	0.0163268
809.358	0.0162796
809.436	0.0163773
809.514	0.0162234
809.592	0.0162891
809.670	0.0161896
809.748	0.0162386
809.826	0.0161687
809.905	0.0161437
809.983	0.0161025
810.061	0.0162283
810.139	0.0160388
810.217	0.0159537
810.295	0.0161679
810.373	0.0160036
810.451	0.0160661
810.530	0.0160384
810.608	0.0159924
810.686	0.0160406
810.764	0.0161085
810.842	0.0161037
810.920	0.0161460
810.998	0.0159262
811.076	0.0158904
811.155	0.0159111
811.233	0.0159727
811.311	0.0160483
811.389	0.0159275
811.467	0.0159343
811.545	0.0159236
811.623	0.0160233
811.701	0.0159618
811.780	0.0160036
811.858	0.0160529
811.936	0.0160270
812.014	0.0161897
812.092	0.0161680
812.170	0.0160511
812.248	0.0162101
812.326	0.0161533
812.405	0.0162192
812.483	0.0163316
812.561	0.0162541
812.639	0.0161931
812.717	0.0162153
812.795	0.0162147
812.873	0.0163305
812.951	0.0162239
813.030	0.0162206
813.108	0.0164095
813.186	0.0162976
813.264	0.0161770
813.342	0.0161733
813.420	0.0162687
813.498	0.0163057
813.576	0.0163503
813.655	0.0161671
813.733	0.0162059
813.811	0.0161512
813.889	0.0162458
813.967	0.0161852
814.045	0.0162310
814.123	0.0161658
814.201	0.0161472
814.280	0.0161159
814.358	0.0161263
814.436	0.0160806
814.514	0.0161543
814.592	0.0160825
814.670	0.0160435
814.748	0.0162237
814.826	0.0160453
814.905	0.0160098
814.983	0.0160598
815.061	0.0159335
815.139	0.0159528
815.217	0.0159205
815.295	0.0159294
815.373	0.0158032
815.451	0.0159132
815.530	0.0159842
815.608	0.0158405
815.686	0.0158474
815.764	0.0159332
815.842	0.0158476
815.920	0.0159364
815.998	0.0160146
816.076	0.0158955
816.155	0.0160273
816.233	0.0158649
816.311	0.0161207
816.389	0.0160358
816.467	0.0160551
816.545	0.0161237
816.623	0.0161504
816.701	0.0161062
816.780	0.0161321
816.858	0.0161343
816.936	0.0161956
817.014	0.0161823
817.092	0.0161498
817.170	0.0162925
817.248	0.0163653
817.326	0.0162961
817.405	0.0161449
817.483	0.0163416
817.561	0.0162207
817.639	0.0161034
817.717	0.0162676
817.795	0.0162831
817.873	0.0160394
817.951	0.0160785
818.030	0.0163576
818.108	0.0159387
818.186	0.0161452
818.264	0.0161592
818.342	0.0160690
818.420	0.0159690
818.498	0.0159274
818.576	0.0160889
818.655	0.0160101
818.733	0.0160161
818.811	0.0160645
818.889	0.0159313
818.967	0.0159587
819.045	0.0158910
819.123	0.0159328
819.201	0.0159221
819.280	0.0158506
819.358	0.0159212
819.436	0.0158879
819.514	0.0158071
819.592	0.0158665
819.670	0.0158062
819.748	0.0158189
819.826	0.0158196
819.905	0.0158694
819.983	0.0156957
820.061	0.0157075
820.139	0.0157687
820.217	0.0158242
820.295	0.0158122
820.373	0.0158500
820.451	0.0160086
820.530	0.0159229
820.608	0.0159116
820.686	0.0158607
820.764	0.0159336
820.842	0.0160722
820.920	0.0159235
820.998	0.0158620
821.076	0.0159639
821.155	0.0160489
821.233	0.0159128
821.311	0.0159148
821.389	0.0159595
821.467	0.0160652
821.545	0.0159943
821.623	0.0160401
821.701	0.0159526
821.780	0.0158282
821.858	0.0159261
821.936	0.0158762
822.014	0.0159242
822.092	0.0158193
822.170	0.0160485
822.248	0.0158984
822.326	0.0159935
822.405	0.0160419
822.483	0.0160326
822.561	0.0160361
822.639	0.0160101
822.717	0.0160460
822.795	0.0160075
822.873	0.0160719
822.951	0.0160260
823.030	0.0159761
823.108	0.0161593
823.186	0.0161121
823.264	0.0159548
823.342	0.0159959
823.420	0.0161728
823.498	0.0161695
823.576	0.0158617
823.655	0.0160434
823.733	0.0160513
823.811	0.0159628
823.889	0.0160277
823.967	0.0160863
824.045	0.0158400
824.123	0.0159785
824.201	0.0158739
824.280	0.0159249
824.358	0.0158955
824.436	0.0158713
824.514	0.0159656
824.592	0.0160558
824.670	0.0158546
824.748	0.0159484
824.826	0.0159100
824.905	0.0161117
824.983	0.0160092
825.061	0.0160365
825.139	0.0158714
825.217	0.0161259
825.295	0.0161284
825.373	0.0162004
825.451	0.0160406
825.530	0.0158922
825.608	0.0160317
825.686	0.0160114
825.764	0.0159997
825.842	0.0160655
825.920	0.0160350
825.998	0.0159367
826.076	0.0158704
826.155	0.0160387
826.233	0.0160161
826.311	0.0159393
826.389	0.0159141
826.467	0.0158201
826.545	0.0158725
826.623	0.0159390
826.701	0.0158424
826.780	0.0158389
826.858	0.0158715
826.936	0.0159511
827.014	0.0158111
827.092	0.0158171
827.170	0.0159348
827.248	0.0159814
827.326	0.0159214
827.405	0.0159599
827.483	0.0159905
827.561	0.0161105
827.639	0.0160419
827.717	0.0159670
827.795	0.0159840
827.873	0.0159985
827.951	0.0160516
828.030	0.0159589
828.108	0.0161065
828.186	0.0159773
828.264	0.0161277
828.342	0.0162221
828.420	0.0160543
828.498	0.0161007
828.576	0.0161167
828.655	0.0161028
828.733	0.0161423
828.811	0.0161694
828.889	0.0161240
828.967	0.0161944
829.045	0.0161871
829.123	0.0161502
829.201	0.0160870
829.280	0.0160017
829.358	0.0161407
829.436	0.0160545
829.514	0.0160925
829.592	0.0159771
829.670	0.0159177
829.748	0.0160600
829.826	0.0158961
829.905	0.0158736
829.983	0.0158323
830.061	0.0158698
830.139	0.0158136
830.217	0.0160217
830.295	0.0159864
830.373	0.0160141
830.451	0.0160210
830.530	0.0160936
830.608	0.0159179
830.686	0.0159485
830.764	0.0159659
830.842	0.0161603
830.920	0.0161425
830.998	0.0160208
831.076	0.0159641
831.155	0.0160602
831.233	0.0161736
831.311	0.0160918
831.389	0.0160238
831.467	0.0159350
831.545	0.0162016
831.623	0.0161266
831.701	0.0161909
831.780	0.0162099
831.858	0.0160722
831.936	0.0161933
832.014	0.0162580
832.092	0.0161840
832.170	0.0161251
832.248	0.0161966
832.326	0.0160774
832.405	0.0161256
832.483	0.0161977
832.561	0.0161501
832.639	0.0161439
832.717	0.0162132
832.795	0.0162127
832.873	0.0163584
832.951	0.0162698
833.030	0.0162286
833.108	0.0162074
833.186	0.0162154
833.264	0.0162070
833.342	0.0161710
833.420	0.0160828
833.498	0.0162496
833.576	0.0161898
833.655	0.0162266
833.733	0.0160891
833.811	0.0160865
833.889	0.0161339
833.967	0.0161028
834.045	0.0160736
834.123	0.0160847
834.201	0.0159290
834.280	0.0159895
834.358	0.0161107
834.436	0.0159358
834.514	0.0159819
834.592	0.0159245
834.670	0.0157400
834.748	0.0159447
834.826	0.0159567
834.905	0.0159030
834.983	0.0158128
835.061	0.0160513
835.139	0.0158675
835.217	0.0158617
835.295	0.0159401
835.373	0.0159354
835.451	0.0159099
835.530	0.0159420
835.608	0.0160068
835.686	0.0158028
835.764	0.0158263
835.842	0.0160526
835.920	0.0160583
835.998	0.0159251
836.076	0.0158643
836.155	0.0159647
836.233	0.0160001
836.311	0.0158994
836.389	0.0159861
836.467	0.0160340
836.545	0.0161121
836.623	0.0160031
836.701	0.0160338
836.780	0.0159933
836.858	0.0161099
836.936	0.0161538
837.014	0.0162520
837.092	0.0161124
837.170	0.0161494
837.248	0.0161048
837.326	0.0162650
837.405	0.0161411
837.483	0.0161240
837.561	0.0162701
837.639	0.0159641
837.717	0.0163042
837.795	0.0160818
837.873	0.0161543
837.951	0.0160484
838.030	0.0159678
838.108	0.0161275
838.186	0.0160725
838.264	0.0160594
838.342	0.0159224
838.420	0.0159734
838.498	0.0160321
838.576	0.0159982
838.655	0.0160770
838.733	0.0160036
838.811	0.0160355
838.889	0.0160133
838.967	0.0161227
839.045	0.0160933
839.123	0.0160435
839.201	0.0159827
839.280	0.0159921
839.358	0.0161549
839.436	0.0161043
839.514	0.0160323
839.592	0.0162064
839.670	0.0160321
839.748	0.0161280
839.826	0.0160323
839.905	0.0160238
839.983	0.0159657
840.061	0.0160236
840.139	0.0160999
840.217	0.0160564
840.295	0.0160705
840.373	0.0160150
840.451	0.0159425
840.530	0.0161236
840.608	0.0161572
840.686	0.0160375
840.764	0.0158988
840.842	0.0159986
840.920	0.0160345
840.998	0.0160020
841.076	0.0161423
841.155	0.0161431
841.233	0.0160007
841.311	0.0158163
841.389	0.0160197
841.467	0.0160633
841.545	0.0159154
841.623	0.0159449
841.701	0.0159553
841.780	0.0158457
841.858	0.0157359
841.936	0.0158293
842.014	0.0158295
842.092	0.0158695
842.170	0.0158569
842.248	0.0158611
842.326	0.0158366
842.405	0.0157790
842.483	0.0158010
842.561	0.0158299
842.639	0.0159744
842.717	0.0158256
842.795	0.0159759
842.873	0.0159492
842.951	0.0159011
843.030	0.0158511
843.108	0.0158578
843.186	0.0158672
843.264	0.0158617
843.342	0.0157859
843.420	0.0158791
843.498	0.0158603
843.576	0.0159819
843.655	0.0160267
843.733	0.0160375
843.811	0.0160423
843.889	0.0159948
843.967	0.0160169
844.045	0.0160286
844.123	0.0159517
844.201	0.0160773
844.280	0.0159669
844.358	0.0159425
844.436	0.0158224
844.514	0.0159983
844.592	0.0160310
844.670	0.0160176
844.748	0.0160764
844.826	0.0160499
844.905	0.0160277
844.983	0.0160063
845.061	0.0160461
845.139	0.0160793
845.217	0.0160349
845.295	0.0159523
845.373	0.0158928
845.451	0.0159172
845.530	0.0159277
845.608	0.0158450
845.686	0.0159510
845.764	0.0159351
845.842	0.0159735
845.920	0.0159224
845.998	0.0160340
846.076	0.0160342
846.155	0.0158875
846.233	0.0158498
846.311	0.0158980
846.389	0.0159947
846.467	0.0159849
846.545	0.0159312
846.623	0.0159450
846.701	0.0160681
846.780	0.0160581
846.858	0.0159951
846.936	0.0160117
847.014	0.0160352
847.092	0.0159876
847.170	0.0160455
847.248	0.0159518
847.326	0.0159760
847.405	0.0159700
847.483	0.0158870
847.561	0.0160260
847.639	0.0160652
847.717	0.0160063
847.795	0.0158775
847.873	0.0160117
847.951	0.0160243
848.030	0.0159760
848.108	0.0160279
848.186	0.0158391
848.264	0.0158652
848.342	0.0157436
848.420	0.0159516
848.498	0.0158720
848.576	0.0158386
848.655	0.0159402
848.733	0.0159444
848.811	0.0158756
848.889	0.0159145
848.967	0.0159644
849.045	0.0160422
849.123	0.0160838
849.201	0.0160183
849.280	0.0159842
849.358	0.0161806
849.436	0.0160645
849.514	0.0159460
849.592	0.0160019
849.670	0.0160082
849.748	0.0160072
849.826	0.0158908
849.905	0.0160381
849.983	0.0159358
850.061	0.0159073
850.139	0.0159330
850.217	0.0159703
850.295	0.0159189
850.373	0.0159081
850.451	0.0159264
850.530	0.0159366
850.608	0.0159748
850.686	0.0158061
850.764	0.0159125
850.842	0.0159059
850.920	0.0158560
850.998	0.0159576
851.076	0.0159246
851.155	0.0160090
851.233	0.0160459
851.311	0.0159260
851.389	0.0160977
851.467	0.0160551
851.545	0.0160292
851.623	0.0159235
851.701	0.0160327
851.780	0.0159453
851.858	0.0159515
851.936	0.0160522
852.014	0.0160417
852.092	0.0161055
852.170	0.0162560
852.248	0.0161334
852.326	0.0161129
852.405	0.0161099
852.483	0.0160876
852.561	0.0159918
852.639	0.0160252
852.717	0.0160297
852.795	0.0161212
852.873	0.0161114
852.951	0.0159932
853.030	0.0160829
853.108	0.0159151
853.186	0.0161502
853.264	0.0161522
853.342	0.0162182
853.420	0.0162032
853.498	0.0161110
853.576	0.0160780
853.655	0.0160126
853.733	0.0161420
853.811	0.0160235
853.889	0.0160763
853.967	0.0159898
854.045	0.0160516
854.123	0.0161575
854.201	0.0161783
854.280	0.0160608
854.358	0.0160149
854.436	0.0159884
854.514	0.0159116
854.592	0.0159889
854.670	0.0159698
854.748	0.0160271
854.826	0.0160476
854.905	0.0161184
854.983	0.0160011
855.061	0.0159637
855.139	0.0160635
855.217	0.0160987
855.295	0.0160023
855.373	0.0160099
855.451	0.0161246
855.530	0.0160599
855.608	0.0160423
855.686	0.0159585
855.764	0.0160534
855.842	0.0161641
855.920	0.0159286
855.998	0.0159287
856.076	0.0162666
856.155	0.0159988
856.233	0.0159480
856.311	0.0159107
856.389	0.0161409
856.467	0.0160248
856.545	0.0159196
856.623	0.0159915
856.701	0.0161604
856.780	0.0161803
856.858	0.0160529
856.936	0.0162170
857.014	0.0160470
857.092	0.0160602
857.170	0.0162377
857.248	0.0161813
857.326	0.0161455
857.405	0.0161649
857.483	0.0162429
857.561	0.0161711
857.639	0.0161066
857.717	0.0160915
857.795	0.0160186
857.873	0.0161156
857.951	0.0161870
858.030	0.0159969
858.108	0.0161073
858.186	0.0159777
858.264	0.0159951
858.342	0.0159911
858.420	0.0161634
858.498	0.0161083
858.576	0.0158193
858.655	0.0160149
858.733	0.0160453
858.811	0.0160574
858.889	0.0162067
858.967	0.0161399
859.045	0.0161296
859.123	0.0161420
859.201	0.0160363
859.280	0.0159509
859.358	0.0159890
859.436	0.0161354
859.514	0.0160313
859.592	0.0160379
859.670	0.0162016
859.748	0.0161590
859.826	0.0159741
859.905	0.0159377
859.983	0.0160141
860.061	0.0161755
860.139	0.0161885
860.217	0.0160741
860.295	0.0161658
860.373	0.0161150
860.451	0.0161517
860.530	0.0162333
860.608	0.0162272
860.686	0.0161181
860.764	0.0162012
860.842	0.0161839
860.920	0.0161697
860.998	0.0162247
861.076	0.0161974
861.155	0.0161685
861.233	0.0162421
861.311	0.0162072
861.389	0.0160912
861.467	0.0162177
861.545	0.0162287
861.623	0.0161253
861.701	0.0161798
861.780	0.0161681
861.858	0.0161928
861.936	0.0160493
862.014	0.0160062
862.092	0.0160583
862.170	0.0160881
862.248	0.0159064
862.326	0.0159591
862.405	0.0159744
862.483	0.0158772
862.561	0.0160790
862.639	0.0158418
862.717	0.0160025
862.795	0.0159693
862.873	0.0159570
862.951	0.0158456
863.030	0.0161559
863.108	0.0159606
863.186	0.0157545
863.264	0.0158527
863.342	0.0158743
863.420	0.0160263
863.498	0.0159871
863.576	0.0160400
863.655	0.0159241
863.733	0.0160116
863.811	0.0161638
863.889	0.0161136
863.967	0.0159998
864.045	0.0160871
864.123	0.0160854
864.201	0.0160400
864.280	0.0161086
864.358	0.0161608
864.436	0.0161060
864.514	0.0160205
864.592	0.0159932
864.670	0.0160267
864.748	0.0161536
864.826	0.0161080
864.905	0.0160904
864.983	0.0161877
865.061	0.0160462
865.139	0.0162129
865.217	0.0161014
865.295	0.0160433
865.373	0.0160384
865.451	0.0160545
865.530	0.0160439
865.608	0.0160265
865.686	0.0159055
865.764	0.0161098
865.842	0.0160581
865.920	0.0158987
865.998	0.0158904
866.076	0.0158911
866.155	0.0158928
866.233	0.0159566
866.311	0.0160301
866.389	0.0160199
866.467	0.0161388
866.545	0.0160185
866.623	0.0161085
866.701	0.0158662
866.780	0.0159570
866.858	0.0159241
866.936	0.0160391
867.014	0.0159784
867.092	0.0159802
867.170	0.0159561
867.248	0.0158883
867.326	0.0160272
867.405	0.0159346
867.483	0.0159757
867.561	0.0160423
867.639	0.0160638
867.717	0.0160613
867.795	0.0160170
867.873	0.0159892
867.951	0.0160495
868.030	0.0161763
868.108	0.0160456
868.186	0.0162094
868.264	0.0162054
868.342	0.0160150
868.420	0.0159768
868.498	0.0160827
868.576	0.0160618
868.655	0.0161404
868.733	0.0161259
868.811	0.0160764
868.889	0.0161870
868.967	0.0160030
869.045	0.0160941
869.123	0.0160588
869.201	0.0158401
869.280	0.0159931
869.358	0.0160266
869.436	0.0160904
869.514	0.0161059
869.592	0.0159198
869.670	0.0158343
869.748	0.0160123
869.826	0.0159047
869.905	0.0158703
869.983	0.0159429
870.061	0.0159449
870.139	0.0159190
870.217	0.0161047
870.295	0.0160437
870.373	0.0160773
870.451	0.0160673
870.530	0.0161143
870.608	0.0162097
870.686	0.0161893
870.764	0.0159927
870.842	0.0161103
870.920	0.0160619
870.998	0.0162223
871.076	0.0159822
871.155	0.0161649
871.233	0.0161304
871.311	0.0161549
871.389	0.0160384
871.467	0.0160365
871.545	0.0162413
871.623	0.0161797
871.701	0.0160336
871.780	0.0159911
871.858	0.0161514
871.936	0.0161466
872.014	0.0161743
872.092	0.0159984
872.170	0.0160191
872.248	0.0159785
872.326	0.0160253
872.405	0.0159322
872.483	0.0160068
872.561	0.0160880
872.639	0.0160276
872.717	0.0159540
872.795	0.0159915
872.873	0.0160603
872.951	0.0162148
873.030	0.0160703
873.108	0.0158448
873.186	0.0160094
873.264	0.0160991
873.342	0.0160670
873.420	0.0160934
873.498	0.0161440
873.576	0.0160761
873.655	0.0159772
873.733	0.0161110
873.811	0.0160526
873.889	0.0160422
873.967	0.0160149
874.045	0.0160925
874.123	0.0159978
874.201	0.0160539
874.280	0.0160719
874.358	0.0159647
874.436	0.0161135
874.514	0.0160330
874.592	0.0159371
874.670	0.0158526
874.748	0.0159223
874.826	0.0160065
874.905	0.0159581
874.983	0.0160143
875.061	0.0159757
875.139	0.0160215
875.217	0.0160517
875.295	0.0160789
875.373	0.0160605
875.451	0.0160679
875.530	0.0160033
875.608	0.0160590
875.686	0.0161109
875.764	0.0160210
875.842	0.0160706
875.920	0.0160665
875.998	0.0161044
876.076	0.0161128
876.155	0.0160806
876.233	0.0160654
876.311	0.0160191
876.389	0.0160152
876.467	0.0158899
876.545	0.0160424
876.623	0.0160560
876.701	0.0160277
876.780	0.0159904
876.858	0.0159421
876.936	0.0158716
877.014	0.0159348
877.092	0.0158176
877.170	0.0159053
877.248	0.0160876
877.326	0.0159470
877.405	0.0160710
877.483	0.0159950
877.561	0.0158818
877.639	0.0159686
877.717	0.0160496
877.795	0.0159116
877.873	0.0159755
877.951	0.0160384
878.030	0.0161099
878.108	0.0159863
878.186	0.0159370
878.264	0.0159663
878.342	0.0161339
878.420	0.0160380
878.498	0.0160833
878.576	0.0160983
878.655	0.0160989
878.733	0.0160831
878.811	0.0158572
878.889	0.0161560
878.967	0.0160124
879.045	0.0160185
879.123	0.0159909
879.201	0.0159923
879.280	0.0160619
879.358	0.0159795
879.436	0.0161317
879.514	0.0159875
879.592	0.0159257
879.670	0.0159253
879.748	0.0160332
879.826	0.0160808
879.905	0.0159438
879.983	0.0159857
880.061	0.0158993
880.139	0.0160231
880.217	0.0159593
880.295	0.0159309
880.373	0.0159345
880.451	0.0159224
880.530	0.0160369
880.608	0.0160252
880.686	0.0160945
880.764	0.0158867
880.842	0.0160133
880.920	0.0161413
880.998	0.0161096
881.076	0.0160924
881.155	0.0161039
881.233	0.0161113
881.311	0.0161349
881.389	0.0160548
881.467	0.0160463
881.545	0.0160654
881.623	0.0159357
881.701	0.0161102
881.780	0.0161031
881.858	0.0160716
881.936	0.0159388
882.014	0.0160155
882.092	0.0160167
882.170	0.0159860
882.248	0.0159966
882.326	0.0160835
882.405	0.0160109
882.483	0.0159737
882.561	0.0160004
882.639	0.0160104
882.717	0.0160139
882.795	0.0158527
882.873	0.0160954
882.951	0.0160446
883.030	0.0159901
883.108	0.0160021
883.186	0.0160687
883.264	0.0159338
883.342	0.0159705
883.420	0.0159509
883.498	0.0159583
883.576	0.0159114
883.655	0.0160384
883.733	0.0161404
883.811	0.0161534
883.889	0.0160999
883.967	0.0160913
884.045	0.0160804
884.123	0.0162589
884.201	0.0162388
884.280	0.0161126
884.358	0.0162078
884.436	0.0162624
884.514	0.0162212
884.592	0.0162390
884.670	0.0162585
884.748	0.0162792
884.826	0.0162421
884.905	0.0161019
884.983	0.0162596
885.061	0.0162450
885.139	0.0163805
885.217	0.0161720
885.295	0.0162987
885.373	0.0161274
885.451	0.0159914
885.530	0.0160809
885.608	0.0160607
885.686	0.0160161
885.764	0.0160165
885.842	0.0160938
885.920	0.0160013
885.998	0.0159686
886.076	0.0161087
886.155	0.0161197
886.233	0.0158936
886.311	0.0160186
886.389	0.0161012
886.467	0.0162058
886.545	0.0162775
886.623	0.0161379
886.701	0.0160774
886.780	0.0161613
886.858	0.0162333
886.936	0.0162644
887.014	0.0161955
887.092	0.0160938
887.170	0.0163277
887.248	0.0161890
887.326	0.0160519
887.405	0.0161201
887.483	0.0162025
887.561	0.0162930
887.639	0.0162183
887.717	0.0161047
887.795	0.0161866
887.873	0.0162094
887.951	0.0162170
888.030	0.0161166
888.108	0.0161382
888.186	0.0160677
888.264	0.0160455
888.342	0.0159396
888.420	0.0160030
888.498	0.0159989
888.576	0.0159343
888.655	0.0159881
888.733	0.0158295
888.811	0.0160087
888.889	0.0159595
888.967	0.0159127
889.045	0.0158930
889.123	0.0159402
889.201	0.0158317
889.280	0.0158452
889.358	0.0159727
889.436	0.0160173
889.514	0.0159291
889.592	0.0159734
889.670	0.0160000
889.748	0.0160244
889.826	0.0159542
889.905	0.0160748
889.983	0.0159905
890.061	0.0160146
890.139	0.0159852
890.217	0.0159460
890.295	0.0159877
890.373	0.0161237
890.451	0.0160245
890.530	0.0158634
890.608	0.0160834
890.686	0.0159960
890.764	0.0158855
890.842	0.0160947
890.920	0.0159824
890.998	0.0159792
891.076	0.0161439
891.155	0.0161501
891.233	0.0161166
891.311	0.0161272
891.389	0.0162878
891.467	0.0161108
891.545	0.0161583
891.623	0.0161565
891.701	0.0161063
891.780	0.0160996
891.858	0.0161859
891.936	0.0161425
892.014	0.0160796
892.092	0.0161446
892.170	0.0162998
892.248	0.0162647
892.326	0.0161748
892.405	0.0160419
892.483	0.0162280
892.561	0.0160773
892.639	0.0161182
892.717	0.0161987
892.795	0.0161622
892.873	0.0161422
892.951	0.0161588
893.030	0.0160575
893.108	0.0160859
893.186	0.0161264
893.264	0.0160344
893.342	0.0161439
893.420	0.0159608
893.498	0.0159272
893.576	0.0159734
893.655	0.0158426
893.733	0.0159096
893.811	0.0160133
893.889	0.0160763
893.967	0.0159804
894.045	0.0159406
894.123	0.0160141
894.201	0.0160075
894.280	0.0158762
894.358	0.0159644
894.436	0.0160603
894.514	0.0161292
894.592	0.0161913
894.670	0.0159457
894.748	0.0159101
894.826	0.0162529
894.905	0.0161478
894.983	0.0161259
895.061	0.0160865
895.139	0.0160246
895.217	0.0160886
895.295	0.0160765
895.373	0.0161930
895.451	0.0160435
895.530	0.0159695
895.608	0.0161483
895.686	0.0160493
895.764	0.0159880
895.842	0.0161617
895.920	0.0162381
895.998	0.0161285
896.076	0.0159844
896.155	0.0160737
896.233	0.0161810
896.311	0.0159233
896.389	0.0158417
896.467	0.0159342
896.545	0.0160851
896.623	0.0161120
896.701	0.0160855
896.780	0.0158720
896.858	0.0159888
896.936	0.0160210
897.014	0.0159128
897.092	0.0159182
897.170	0.0159147
897.248	0.0158384
897.326	0.0159077
897.405	0.0160363
897.483	0.0159667
897.561	0.0158972
897.639	0.0158526
897.717	0.0159427
897.795	0.0159130
897.873	0.0159120
897.951	0.0158262
898.030	0.0158412
898.108	0.0159467
898.186	0.0159292
898.264	0.0159509
898.342	0.0158850
898.420	0.0159835
898.498	0.0159224
898.576	0.0160629
898.655	0.0159565
898.733	0.0159067
898.811	0.0160171
898.889	0.0159975
898.967	0.0160706
899.045	0.0159535
899.123	0.0158928
899.201	0.0160646
899.280	0.0159869
899.358	0.0161001
899.436	0.0159264
899.514	0.0160434
899.592	0.0160848
899.670	0.0158743
899.748	0.0159974
899.826	0.0159922
899.905	0.0159975
899.983	0.0160596
900.061	0.0159403
900.139	0.0159048
900.217	0.0159962
900.295	0.0159474
900.373	0.0159799
900.451	0.0160871
900.530	0.0159873
900.608	0.0159560
900.686	0.0160355
900.764	0.0159875
900.842	0.0159154
900.920	0.0160056
900.998	0.0160378
901.076	0.0160557
901.155	0.0160030
901.233	0.0161037
901.311	0.0160561
901.389	0.0160168
901.467	0.0161612
901.545	0.0161211
901.623	0.0161784
901.701	0.0162642
901.780	0.0161641
901.858	0.0162098
901.936	0.0162661
902.014	0.0163410
902.092	0.0161913
902.170	0.0162788
902.248	0.0161947
902.326	0.0161093
902.405	0.0161199
902.483	0.0161942
902.561	0.0162325
902.639	0.0160773
902.717	0.0162312
902.795	0.0161945
902.873	0.0160611
902.951	0.0160071
903.030	0.0161010
903.108	0.0161856
903.186	0.0160067
903.264	0.0160137
903.342	0.0158920
903.420	0.0159608
903.498	0.0160506
903.576	0.0161663
903.655	0.0160574
903.733	0.0159458
903.811	0.0159562
903.889	0.0160204
903.967	0.0159946
904.045	0.0160484
904.123	0.0160197
904.201	0.0160244
904.280	0.0160080
904.358	0.0159514
904.436	0.0160760
904.514	0.0160233
904.592	0.0159726
904.670	0.0161038
904.748	0.0159364
904.826	0.0160632
904.905	0.0160748
904.983	0.0160458
905.061	0.0159951
905.139	0.0160565
905.217	0.0160983
905.295	0.0160772
905.373	0.0160918
905.451	0.0161760
905.530	0.0161092
905.608	0.0161308
905.686	0.0160476
905.764	0.0162931
905.842	0.0161076
905.920	0.0160306
905.998	0.0162475
906.076	0.0160139
906.155	0.0161480
906.233	0.0161577
906.311	0.0163184
906.389	0.0162983
906.467	0.0162219
906.545	0.0161607
906.623	0.0162072
906.701	0.0161257
906.780	0.0162398
906.858	0.0162284
906.936	0.0162447
907.014	0.0161341
907.092	0.0161352
907.170	0.0161272
907.248	0.0161870
907.326	0.0161922
907.405	0.0160938
907.483	0.0161774
907.561	0.0161803
907.639	0.0161031
907.717	0.0161407
907.795	0.0160448
907.873	0.0161491
907.951	0.0160590
908.030	0.0160280
908.108	0.0161222
908.186	0.0161189
908.264	0.0160751
908.342	0.0161143
908.420	0.0159765
908.498	0.0160826
908.576	0.0159996
908.655	0.0160366
908.733	0.0159778
908.811	0.0160603
908.889	0.0159109
908.967	0.0159998
909.045	0.0160211
909.123	0.0160331
909.201	0.0159000
909.280	0.0159467
909.358	0.0160509
909.436	0.0158584
909.514	0.0159156
909.592	0.0158707
909.670	0.0161044
909.748	0.0159917
909.826	0.0158812
909.905	0.0158645
909.983	0.0160754
910.061	0.0159742
910.139	0.0159930
910.217	0.0159500
910.295	0.0159835
910.373	0.0161773
910.451	0.0160783
910.530	0.0159406
910.608	0.0158720
910.686	0.0160644
910.764	0.0158584
910.842	0.0159138
910.920	0.0158556
910.998	0.0160921
911.076	0.0159737
911.155	0.0158955
911.233	0.0160179
911.311	0.0161002
911.389	0.0159350
911.467	0.0158814
911.545	0.0159983
911.623	0.0159216
911.701	0.0159579
911.780	0.0159849
911.858	0.0158907
911.936	0.0159181
912.014	0.0161427
912.092	0.0161395
912.170	0.0160092
912.248	0.0159645
912.326	0.0159379
912.405	0.0160519
912.483	0.0161102
912.561	0.0160281
912.639	0.0160852
912.717	0.0160960
912.795	0.0161377
912.873	0.0160500
912.951	0.0161404
913.030	0.0161046
913.108	0.0161703
913.186	0.0160494
913.264	0.0162051
913.342	0.0161476
913.420	0.0160954
913.498	0.0161743
913.576	0.0160741
913.655	0.0161434
913.733	0.0161581
913.811	0.0161236
913.889	0.0161470
913.967	0.0160791
914.045	0.0160903
914.123	0.0160576
914.201	0.0159830
914.280	0.0160240
914.358	0.0160737
914.436	0.0161792
914.514	0.0159841
914.592	0.0159653
914.670	0.0160149
914.748	0.0160248
914.826	0.0159145
914.905	0.0160626
914.983	0.0160797
915.061	0.0159044
915.139	0.0159902
915.217	0.0159818
915.295	0.0158257
915.373	0.0157720
915.451	0.0159962
915.530	0.0159725
915.608	0.0160844
915.686	0.0159430
915.764	0.0159461
915.842	0.0160232
915.920	0.0158138
915.998	0.0159040
916.076	0.0159856
916.155	0.0159839
916.233	0.0158573
916.311	0.0159142
916.389	0.0159674
916.467	0.0159280
916.545	0.0157944
916.623	0.0160606
916.701	0.0160241
916.780	0.0158874
916.858	0.0159376
916.936	0.0160293
917.014	0.0159296
917.092	0.0161250
917.170	0.0160948
917.248	0.0160069
917.326	0.0160605
917.405	0.0160547
917.483	0.0159996
917.561	0.0160682
917.639	0.0161223
917.717	0.0161910
917.795	0.0161289
917.873	0.0161227
917.951	0.0160957
918.030	0.0160844
918.108	0.0161562
918.186	0.0161517
918.264	0.0161833
918.342	0.0161286
918.420	0.0161787
918.498	0.0161987
918.576	0.0160985
918.655	0.0159807
918.733	0.0159623
918.811	0.0160369
918.889	0.0159766
918.967	0.0161707
919.045	0.0160128
919.123	0.0161298
919.201	0.0161473
919.280	0.0160285
919.358	0.0160490
919.436	0.0160110
919.514	0.0160443
919.592	0.0159403
919.670	0.0162360
919.748	0.0161263
919.826	0.0161456
919.905	0.0159644
919.983	0.0160431
920.061	0.0161722
920.139	0.0162395
920.217	0.0159777
920.295	0.0160119
920.373	0.0159694
920.451	0.0161313
920.530	0.0162089
920.608	0.0159691
920.686	0.0161036
920.764	0.0160897
920.842	0.0160441
920.920	0.0158915
920.998	0.0160201
921.076	0.0160817
921.155	0.0159592
921.233	0.0158656
921.311	0.0160028
921.389	0.0160207
921.467	0.0161044
921.545	0.0160117
921.623	0.0159657
921.701	0.0159238
921.780	0.0159212
921.858	0.0160611
921.936	0.0159304
922.014	0.0159472
922.092	0.0159488
922.170	0.0159730
922.248	0.0160290
922.326	0.0160493
922.405	0.0160111
922.483	0.0160774
922.561	0.0159585
922.639	0.0160156
922.717	0.0158230
922.795	0.0159369
922.873	0.0158900
922.951	0.0157545
923.030	0.0157925
923.108	0.0159853
923.186	0.0158356
923.264	0.0158437
923.342	0.0158958
923.420	0.0158543
923.498	0.0158942
923.576	0.0158563
923.655	0.0159233
923.733	0.0160474
923.811	0.0160522
923.889	0.0158805
923.967	0.0159077
924.045	0.0159888
924.123	0.0159954
924.201	0.0161118
924.280	0.0159494
924.358	0.0160482
924.436	0.0160899
924.514	0.0158157
924.592	0.0159232
924.670	0.0160806
924.748	0.0159527
924.826	0.0160607
924.905	0.0160355
924.983	0.0158946
925.061	0.0160294
925.139	0.0160509
925.217	0.0160591
925.295	0.0158764
925.373	0.0159451
925.451	0.0160687
925.530	0.0160361
925.608	0.0157936
925.686	0.0160789
925.764	0.0161073
925.842	0.0159183
925.920	0.0158756
925.998	0.0159480
926.076	0.0159678
926.155	0.0159184
926.233	0.0159498
926.311	0.0159933
926.389	0.0160922
926.467	0.0158372
926.545	0.0158044
926.623	0.0159495
926.701	0.0160801
926.780	0.0159042
926.858	0.0159078
926.936	0.0160533
927.014	0.0158418
927.092	0.0160479
927.170	0.0159255
927.248	0.0158802
927.326	0.0160229
927.405	0.0160354
927.483	0.0161828
927.561	0.0159743
927.639	0.0160590
927.717	0.0161220
927.795	0.0160359
927.873	0.0160164
927.951	0.0160699
928.030	0.0161736
928.108	0.0161324
928.186	0.0160340
928.264	0.0160734
928.342	0.0161235
928.420	0.0160133
928.498	0.0162137
928.576	0.0160987
928.655	0.0161168
928.733	0.0160889
928.811	0.0161436
928.889	0.0160690
928.967	0.0161052
929.045	0.0161156
929.123	0.0160522
929.201	0.0160184
929.280	0.0161457
929.358	0.0160837
929.436	0.0160165
929.514	0.0161330
929.592	0.0160575
929.670	0.0159664
929.748	0.0160688
929.826	0.0159725
929.905	0.0160699
929.983	0.0160450
930.061	0.0160194
930.139	0.0159289
930.217	0.0159972
930.295	0.0160789
930.373	0.0158892
930.451	0.0159772
930.530	0.0160555
930.608	0.0159560
930.686	0.0159634
930.764	0.0159588
930.842	0.0159350
930.920	0.0159810
930.998	0.0159506
931.076	0.0159805
931.155	0.0160995
931.233	0.0159142
931.311	0.0159762
931.389	0.0160817
931.467	0.0159419
931.545	0.0158973
931.623	0.0159969
931.701	0.0159995
931.780	0.0160291
931.858	0.0160132
931.936	0.0159591
932.014	0.0157958
932.092	0.0158052
932.170	0.0159639
932.248	0.0159261
932.326	0.0159276
932.405	0.0159418
932.483	0.0159147
932.561	0.0159013
932.639	0.0158810
932.717	0.0159748
932.795	0.0160286
932.873	0.0159442
932.951	0.0159547
933.030	0.0159798
933.108	0.0158952
933.186	0.0159620
933.264	0.0160979
933.342	0.0159828
933.420	0.0158614
933.498	0.0159538
933.576	0.0161538
933.655	0.0161452
933.733	0.0160749
933.811	0.0161485
933.889	0.0160498
933.967	0.0159914
934.045	0.0159482
934.123	0.0159642
934.201	0.0162212
934.280	0.0160345
934.358	0.0159122
934.436	0.0160070
934.514	0.0159847
934.592	0.0157893
934.670	0.0159081
934.748	0.0158914
934.826	0.0158566
934.905	0.0159258
934.983	0.0159280
935.061	0.0159715
935.139	0.0160004
935.217	0.0159330
935.295	0.0158892
935.373	0.0157980
935.451	0.0159666
935.530	0.0159896
935.608	0.0160181
935.686	0.0159351
935.764	0.0159279
935.842	0.0160339
935.920	0.0160716
935.998	0.0158363
936.076	0.0158936
936.155	0.0160496
936.233	0.0160422
936.311	0.0159800
936.389	0.0159164
936.467	0.0159050
936.545	0.0159463
936.623	0.0159087
936.701	0.0158157
936.780	0.0160226
936.858	0.0159657
936.936	0.0158141
937.014	0.0158540
937.092	0.0158015
937.170	0.0158643
937.248	0.0159349
937.326	0.0157347
937.405	0.0158627
937.483	0.0159760
937.561	0.0158147
937.639	0.0160138
937.717	0.0159097
937.795	0.0157849
937.873	0.0160600
937.951	0.0160827
938.030	0.0160140
938.108	0.0159166
938.186	0.0161017
938.264	0.0160701
938.342	0.0159277
938.420	0.0158891
938.498	0.0159595
938.576	0.0159538
938.655	0.0160190
938.733	0.0159912
938.811	0.0160067
938.889	0.0160335
938.967	0.0160164
939.045	0.0160702
939.123	0.0160378
939.201	0.0161166
939.280	0.0161058
939.358	0.0160855
939.436	0.0160294
939.514	0.0161582
939.592	0.0159078
939.670	0.0161134
939.748	0.0162103
939.826	0.0161404
939.905	0.0160793
939.983	0.0161083
940.061	0.0161396
940.139	0.0160563
940.217	0.0159477
940.295	0.0161130
940.373	0.0160091
940.451	0.0161092
940.530	0.0161159
940.608	0.0162413
940.686	0.0162110
940.764	0.0160725
940.842	0.0159743
940.920	0.0160706
940.998	0.0161018
941.076	0.0161245
941.155	0.0161303
941.233	0.0162116
941.311	0.0161115
941.389	0.0161098
941.467	0.0161276
941.545	0.0160631
941.623	0.0160138
941.701	0.0160096
941.780	0.0161784
941.858	0.0160384
941.936	0.0159623
942.014	0.0160088
942.092	0.0160126
942.170	0.0160732
942.248	0.0158615
942.326	0.0157378
942.405	0.0158282
942.483	0.0160928
942.561	0.0158798
942.639	0.0158092
942.717	0.0158627
942.795	0.0159711
942.873	0.0159018
942.951	0.0158925
943.030	0.0160303
943.108	0.0158918
943.186	0.0158096
943.264	0.0159859
943.342	0.0158728
943.420	0.0159160
943.498	0.0159901
943.576	0.0158355
943.655	0.0160323
943.733	0.0160743
943.811	0.0159211
943.889	0.0159608
943.967	0.0159818
944.045	0.0160078
944.123	0.0158878
944.201	0.0158449
944.280	0.0160256
944.358	0.0159306
944.436	0.0161147
944.514	0.0160160
944.592	0.0159767
944.670	0.0159297
944.748	0.0159862
944.826	0.0160061
944.905	0.0159918
944.983	0.0161304
945.061	0.0158273
945.139	0.0160677
945.217	0.0159110
945.295	0.0160015
945.373	0.0160066
945.451	0.0160997
945.530	0.0161284
945.608	0.0161179
945.686	0.0159811
945.764	0.0159875
945.842	0.0160777
945.920	0.0161604
945.998	0.0160513
946.076	0.0160362
946.155	0.0161077
946.233	0.0159689
946.311	0.0161398
946.389	0.0161049
946.467	0.0161174
946.545	0.0160422
946.623	0.0159786
946.701	0.0161089
946.780	0.0158907
946.858	0.0159539
946.936	0.0160536
947.014	0.0160131
947.092	0.0160629
947.170	0.0160149
947.248	0.0159967
947.326	0.0158964
947.405	0.0159612
947.483	0.0160081
947.561	0.0160626
947.639	0.0160976
947.717	0.0161072
947.795	0.0162199
947.873	0.0162176
947.951	0.0160683
948.030	0.0161246
948.108	0.0160465
948.186	0.0161328
948.264	0.0161123
948.342	0.0161797
948.420	0.0161060
948.498	0.0161290
948.576	0.0162474
948.655	0.0161087
948.733	0.0160474
948.811	0.0160969
948.889	0.0162650
948.967	0.0162514
949.045	0.0160934
949.123	0.0162363
949.201	0.0161836
949.280	0.0161900
949.358	0.0162251
949.436	0.0161578
949.514	0.0162674
949.592	0.0162456
949.670	0.0163367
949.748	0.0159845
949.826	0.0161700
949.905	0.0162238
949.983	0.0162244
950.061	0.0161754
950.139	0.0161395
950.217	0.0160856
950.295	0.0160589
950.373	0.0160712
950.451	0.0161278
950.530	0.0159435
950.608	0.0159398
950.686	0.0160129
950.764	0.0159995
950.842	0.0159791
950.920	0.0160509
950.998	0.0159259
951.076	0.0160664
951.155	0.0160184
951.233	0.0160800
951.311	0.0159573
951.389	0.0160150
951.467	0.0158871
951.545	0.0159219
951.623	0.0161134
951.701	0.0160056
951.780	0.0160112
951.858	0.0160223
951.936	0.0159114
952.014	0.0158857
952.092	0.0159660
952.170	0.0160279
952.248	0.0158884
952.326	0.0159380
952.405	0.0160597
952.483	0.0159272
952.561	0.0158922
952.639	0.0159044
952.717	0.0159558
952.795	0.0158322
952.873	0.0158720
952.951	0.0158307
953.030	0.0158981
953.108	0.0159253
953.186	0.0159809
953.264	0.0158773
953.342	0.0158641
953.420	0.0159454
953.498	0.0160671
953.576	0.0160251
953.655	0.0159727
953.733	0.0158876
953.811	0.0160486
953.889	0.0160664
953.967	0.0160420
954.045	0.0159879
954.123	0.0159599
954.201	0.0159696
954.280	0.0160226
954.358	0.0159380
954.436	0.0160928
954.514	0.0159991
954.592	0.0159234
954.670	0.0160052
954.748	0.0162097
954.826	0.0161867
954.905	0.0161678
954.983	0.0159858
955.061	0.0159953
955.139	0.0161840
955.217	0.0161536
955.295	0.0161048
955.373	0.0161705
955.451	0.0162376
955.530	0.0161588
955.608	0.0160772
955.686	0.0160133
955.764	0.0160877
955.842	0.0161212
955.920	0.0161328
955.998	0.0159743
956.076	0.0160277
956.155	0.0160220
956.233	0.0159111
956.311	0.0160100
956.389	0.0159792
956.467	0.0159389
956.545	0.0159535
956.623	0.0158780
956.701	0.0159766
956.780	0.0160133
956.858	0.0159231
956.936	0.0159081
957.014	0.0159164
957.092	0.0160064
957.170	0.0159608
957.248	0.0158688
957.326	0.0158145
957.405	0.0159495
957.483	0.0159183
957.561	0.0159785
957.639	0.0159922
957.717	0.0159003
957.795	0.0158141
957.873	0.0160256
957.951	0.0159425
958.030	0.0158929
958.108	0.0160193
958.186	0.0159299
958.264	0.0158350
958.342	0.0159312
958.420	0.0160172
958.498	0.0158635
958.576	0.0159174
958.655	0.0157636
958.733	0.0158181
958.811	0.0158162
958.889	0.0158228
958.967	0.0158631
959.045	0.0159486
959.123	0.0159756
959.201	0.0160139
959.280	0.0158685
959.358	0.0158002
959.436	0.0159253
959.514	0.0160633
959.592	0.0159328
959.670	0.0160376
959.748	0.0160724
959.826	0.0160426
959.905	0.0159540
