05/17/2022	17:02:49	Ver.	4.1	UNKNOWN
Optical Delay	639.982744	Delta X		0.078125	Sweeps	1	Scan Rate	0/0
Coordinates	Axis 1	NaN	Axis 2	NaN	Axis 3	NaN	Axis 4	NaN	Axis 5	NaN	Axis 6	0.000000
TX Power	0.000000	RX Power	0.000000

639.983	0.0159954
640.061	0.0158894
640.139	0.0160275
640.217	0.0160321
640.295	0.0161102
640.373	0.0159260
640.451	0.0159817
640.530	0.0161678
640.608	0.0160439
640.686	0.0160921
640.764	0.0160265
640.842	0.0161456
640.920	0.0162069
640.998	0.0162205
641.076	0.0161606
641.155	0.0162014
641.233	0.0159917
641.311	0.0161149
641.389	0.0160042
641.467	0.0160582
641.545	0.0159844
641.623	0.0160479
641.701	0.0160117
641.780	0.0160986
641.858	0.0159351
641.936	0.0158948
642.014	0.0160006
642.092	0.0159097
642.170	0.0159075
642.248	0.0160085
642.326	0.0160246
642.405	0.0159323
642.483	0.0159808
642.561	0.0160971
642.639	0.0162641
642.717	0.0161008
642.795	0.0159634
642.873	0.0159586
642.951	0.0162595
643.030	0.0162643
643.108	0.0162682
643.186	0.0160036
643.264	0.0160307
643.342	0.0160962
643.420	0.0161320
643.498	0.0161298
643.576	0.0159885
643.655	0.0160612
643.733	0.0161021
643.811	0.0161635
643.889	0.0161482
643.967	0.0162210
644.045	0.0162255
644.123	0.0162049
644.201	0.0162190
644.280	0.0161558
644.358	0.0161718
644.436	0.0161422
644.514	0.0161703
644.592	0.0160748
644.670	0.0160986
644.748	0.0159908
644.826	0.0161776
644.905	0.0161465
644.983	0.0161930
645.061	0.0160912
645.139	0.0162025
645.217	0.0161112
645.295	0.0162315
645.373	0.0159819
645.451	0.0160332
645.530	0.0160264
645.608	0.0161581
645.686	0.0162413
645.764	0.0161372
645.842	0.0161358
645.920	0.0163036
645.998	0.0161839
646.076	0.0161104
646.155	0.0161388
646.233	0.0161776
646.311	0.0161618
646.389	0.0160767
646.467	0.0161970
646.545	0.0161422
646.623	0.0162262
646.701	0.0161857
646.780	0.0161335
646.858	0.0161002
646.936	0.0160919
647.014	0.0161020
647.092	0.0160838
647.170	0.0160450
647.248	0.0162444
647.326	0.0161493
647.405	0.0161732
647.483	0.0161282
647.561	0.0160582
647.639	0.0161716
647.717	0.0162000
647.795	0.0161308
647.873	0.0161528
647.951	0.0163186
648.030	0.0162366
648.108	0.0161196
648.186	0.0161829
648.264	0.0161488
648.342	0.0161842
648.420	0.0161312
648.498	0.0162313
648.576	0.0161013
648.655	0.0162796
648.733	0.0159965
648.811	0.0161110
648.889	0.0160302
648.967	0.0160771
649.045	0.0159096
649.123	0.0161018
649.201	0.0161781
649.280	0.0160088
649.358	0.0161745
649.436	0.0161765
649.514	0.0162114
649.592	0.0163253
649.670	0.0161404
649.748	0.0161661
649.826	0.0161305
649.905	0.0160751
649.983	0.0160993
650.061	0.0161768
650.139	0.0160422
650.217	0.0160706
650.295	0.0161277
650.373	0.0160702
650.451	0.0160204
650.530	0.0158970
650.608	0.0160408
650.686	0.0161084
650.764	0.0160030
650.842	0.0160164
650.920	0.0160794
650.998	0.0159856
651.076	0.0159276
651.155	0.0161157
651.233	0.0160602
651.311	0.0161687
651.389	0.0161646
651.467	0.0161045
651.545	0.0161006
651.623	0.0160684
651.701	0.0162366
651.780	0.0160007
651.858	0.0159698
651.936	0.0160939
652.014	0.0161696
652.092	0.0161896
652.170	0.0160405
652.248	0.0158275
652.326	0.0160055
652.405	0.0160001
652.483	0.0158955
652.561	0.0158455
652.639	0.0158273
652.717	0.0159706
652.795	0.0158855
652.873	0.0158291
652.951	0.0158951
653.030	0.0158324
653.108	0.0158736
653.186	0.0158879
653.264	0.0158852
653.342	0.0159101
653.420	0.0159113
653.498	0.0158233
653.576	0.0157630
653.655	0.0159109
653.733	0.0158627
653.811	0.0158344
653.889	0.0159142
653.967	0.0159246
654.045	0.0159195
654.123	0.0157452
654.201	0.0157806
654.280	0.0159323
654.358	0.0158179
654.436	0.0156999
654.514	0.0159093
654.592	0.0157124
654.670	0.0156329
654.748	0.0157993
654.826	0.0159592
654.905	0.0159528
654.983	0.0158960
655.061	0.0160050
655.139	0.0158160
655.217	0.0160003
655.295	0.0160946
655.373	0.0160378
655.451	0.0160149
655.530	0.0159485
655.608	0.0159937
655.686	0.0159743
655.764	0.0160471
655.842	0.0158691
655.920	0.0158317
655.998	0.0159311
656.076	0.0160025
656.155	0.0158111
656.233	0.0160459
656.311	0.0158227
656.389	0.0159663
656.467	0.0159599
656.545	0.0158218
656.623	0.0158937
656.701	0.0159424
656.780	0.0158560
656.858	0.0159010
656.936	0.0158089
657.014	0.0157831
657.092	0.0159682
657.170	0.0159502
657.248	0.0157780
657.326	0.0159764
657.405	0.0158324
657.483	0.0160201
657.561	0.0160299
657.639	0.0157650
657.717	0.0158980
657.795	0.0158385
657.873	0.0159991
657.951	0.0160899
658.030	0.0158305
658.108	0.0159077
658.186	0.0159174
658.264	0.0156934
658.342	0.0158538
658.420	0.0158971
658.498	0.0159766
658.576	0.0158518
658.655	0.0158513
658.733	0.0157766
658.811	0.0158748
658.889	0.0159223
658.967	0.0159232
659.045	0.0159411
659.123	0.0159156
659.201	0.0159261
659.280	0.0158433
659.358	0.0158988
659.436	0.0158176
659.514	0.0158315
659.592	0.0158589
659.670	0.0159347
659.748	0.0158847
659.826	0.0157462
659.905	0.0158083
659.983	0.0158668
660.061	0.0156898
660.139	0.0157674
660.217	0.0157587
660.295	0.0157968
660.373	0.0158192
660.451	0.0157272
660.530	0.0158233
660.608	0.0157035
660.686	0.0157692
660.764	0.0157491
660.842	0.0158150
660.920	0.0156684
660.998	0.0156378
661.076	0.0156819
661.155	0.0156950
661.233	0.0157142
661.311	0.0157485
661.389	0.0158109
661.467	0.0157037
661.545	0.0157590
661.623	0.0157340
661.701	0.0157522
661.780	0.0156766
661.858	0.0158067
661.936	0.0157700
662.014	0.0157794
662.092	0.0157472
662.170	0.0158162
662.248	0.0157440
662.326	0.0157400
662.405	0.0158620
662.483	0.0157827
662.561	0.0158161
662.639	0.0159039
662.717	0.0159778
662.795	0.0159808
662.873	0.0159019
662.951	0.0159998
663.030	0.0160818
663.108	0.0159768
663.186	0.0160155
663.264	0.0161888
663.342	0.0160704
663.420	0.0161703
663.498	0.0160299
663.576	0.0160876
663.655	0.0159543
663.733	0.0160007
663.811	0.0160086
663.889	0.0160404
663.967	0.0160578
664.045	0.0158973
664.123	0.0158852
664.201	0.0157232
664.280	0.0158626
664.358	0.0155677
664.436	0.0157352
664.514	0.0157817
664.592	0.0156456
664.670	0.0157690
664.748	0.0156924
664.826	0.0156409
664.905	0.0157613
664.983	0.0157187
665.061	0.0159273
665.139	0.0159160
665.217	0.0157735
665.295	0.0158368
665.373	0.0159103
665.451	0.0160205
665.530	0.0160273
665.608	0.0161551
665.686	0.0161275
665.764	0.0161327
665.842	0.0161251
665.920	0.0162224
665.998	0.0162182
666.076	0.0161807
666.155	0.0162524
666.233	0.0162379
666.311	0.0163544
666.389	0.0163033
666.467	0.0162553
666.545	0.0161684
666.623	0.0161823
666.701	0.0161823
666.780	0.0163055
666.858	0.0161326
666.936	0.0160162
667.014	0.0159956
667.092	0.0158113
667.170	0.0156687
667.248	0.0158144
667.326	0.0156333
667.405	0.0155249
667.483	0.0155912
667.561	0.0155063
667.639	0.0154342
667.717	0.0154134
667.795	0.0154692
667.873	0.0155201
667.951	0.0155664
668.030	0.0154424
668.108	0.0157927
668.186	0.0156761
668.264	0.0156410
668.342	0.0158508
668.420	0.0159321
668.498	0.0158675
668.576	0.0161958
668.655	0.0162876
668.733	0.0163995
668.811	0.0163852
668.889	0.0165617
668.967	0.0166143
669.045	0.0167203
669.123	0.0169009
669.201	0.0168011
669.280	0.0169547
669.358	0.0167918
669.436	0.0167786
669.514	0.0167922
669.592	0.0167156
669.670	0.0167007
669.748	0.0165844
669.826	0.0164362
669.905	0.0164728
669.983	0.0163184
670.061	0.0161448
670.139	0.0159164
670.217	0.0159696
670.295	0.0158962
670.373	0.0157089
670.451	0.0156282
670.530	0.0155719
670.608	0.0155626
670.686	0.0152840
670.764	0.0153912
670.842	0.0154325
670.920	0.0153957
670.998	0.0154208
671.076	0.0153618
671.155	0.0153937
671.233	0.0154204
671.311	0.0155210
671.389	0.0155730
671.467	0.0156406
671.545	0.0156240
671.623	0.0158004
671.701	0.0158656
671.780	0.0160253
671.858	0.0160043
671.936	0.0161766
672.014	0.0161916
672.092	0.0164176
672.170	0.0163697
672.248	0.0164584
672.326	0.0166308
672.405	0.0167091
672.483	0.0168467
672.561	0.0168323
672.639	0.0168648
672.717	0.0169847
672.795	0.0168610
672.873	0.0169627
672.951	0.0168203
673.030	0.0167134
673.108	0.0167566
673.186	0.0168745
673.264	0.0166879
673.342	0.0167818
673.420	0.0165425
673.498	0.0166058
673.576	0.0164526
673.655	0.0164317
673.733	0.0163361
673.811	0.0161777
673.889	0.0162648
673.967	0.0160616
674.045	0.0159068
674.123	0.0158834
674.201	0.0157340
674.280	0.0157355
674.358	0.0155184
674.436	0.0152619
674.514	0.0155394
674.592	0.0154252
674.670	0.0152853
674.748	0.0152102
674.826	0.0152657
674.905	0.0153523
674.983	0.0153466
675.061	0.0152782
675.139	0.0153268
675.217	0.0155662
675.295	0.0154895
675.373	0.0155621
675.451	0.0157392
675.530	0.0159245
675.608	0.0160761
675.686	0.0160192
675.764	0.0160448
675.842	0.0162221
675.920	0.0163288
675.998	0.0164729
676.076	0.0165839
676.155	0.0168139
676.233	0.0166717
676.311	0.0168314
676.389	0.0168889
676.467	0.0168117
676.545	0.0169049
676.623	0.0169888
676.701	0.0169501
676.780	0.0170141
676.858	0.0168855
676.936	0.0168004
677.014	0.0167843
677.092	0.0165331
677.170	0.0165342
677.248	0.0166197
677.326	0.0162484
677.405	0.0161628
677.483	0.0159490
677.561	0.0159057
677.639	0.0156567
677.717	0.0155686
677.795	0.0153990
677.873	0.0154895
677.951	0.0152575
678.030	0.0151959
678.108	0.0152098
678.186	0.0152348
678.264	0.0152621
678.342	0.0151109
678.420	0.0153511
678.498	0.0153768
678.576	0.0151919
678.655	0.0152660
678.733	0.0154087
678.811	0.0155909
678.889	0.0155849
678.967	0.0156239
679.045	0.0158292
679.123	0.0158336
679.201	0.0157610
679.280	0.0158846
679.358	0.0161072
679.436	0.0160992
679.514	0.0159106
679.592	0.0159219
679.670	0.0160059
679.748	0.0161526
679.826	0.0160328
679.905	0.0160110
679.983	0.0160593
680.061	0.0161062
680.139	0.0161302
680.217	0.0160902
680.295	0.0160828
680.373	0.0162765
680.451	0.0161524
680.530	0.0162314
680.608	0.0162845
680.686	0.0163748
680.764	0.0165073
680.842	0.0162785
680.920	0.0164089
680.998	0.0162454
681.076	0.0162595
681.155	0.0162782
681.233	0.0161774
681.311	0.0160852
681.389	0.0160222
681.467	0.0157044
681.545	0.0155492
681.623	0.0153380
681.701	0.0152799
681.780	0.0152731
681.858	0.0150739
681.936	0.0148753
682.014	0.0148651
682.092	0.0146582
682.170	0.0145341
682.248	0.0144672
682.326	0.0145051
682.405	0.0145444
682.483	0.0145552
682.561	0.0144935
682.639	0.0146856
682.717	0.0148631
682.795	0.0148895
682.873	0.0150907
682.951	0.0152882
683.030	0.0155876
683.108	0.0156881
683.186	0.0158575
683.264	0.0161085
683.342	0.0161920
683.420	0.0164115
683.498	0.0165273
683.576	0.0167345
683.655	0.0169262
683.733	0.0169159
683.811	0.0168732
683.889	0.0170125
683.967	0.0169898
684.045	0.0169532
684.123	0.0168904
684.201	0.0167528
684.280	0.0168477
684.358	0.0165723
684.436	0.0164340
684.514	0.0164515
684.592	0.0163187
684.670	0.0163062
684.748	0.0159953
684.826	0.0158748
684.905	0.0156763
684.983	0.0157069
685.061	0.0155547
685.139	0.0155167
685.217	0.0154583
685.295	0.0151913
685.373	0.0149982
685.451	0.0149792
685.530	0.0148367
685.608	0.0148586
685.686	0.0147502
685.764	0.0148376
685.842	0.0146922
685.920	0.0147474
685.998	0.0147517
686.076	0.0148463
686.155	0.0149351
686.233	0.0150919
686.311	0.0150759
686.389	0.0152491
686.467	0.0154345
686.545	0.0154434
686.623	0.0156091
686.701	0.0157610
686.780	0.0159345
686.858	0.0159956
686.936	0.0160780
687.014	0.0161426
687.092	0.0163194
687.170	0.0162057
687.248	0.0161037
687.326	0.0162155
687.405	0.0162299
687.483	0.0161988
687.561	0.0161848
687.639	0.0163029
687.717	0.0162928
687.795	0.0161124
687.873	0.0162395
687.951	0.0162495
688.030	0.0162511
688.108	0.0162664
688.186	0.0160522
688.264	0.0161588
688.342	0.0161632
688.420	0.0162508
688.498	0.0162031
688.576	0.0162035
688.655	0.0162108
688.733	0.0163700
688.811	0.0165924
688.889	0.0166545
688.967	0.0165285
689.045	0.0167927
689.123	0.0170614
689.201	0.0170062
689.280	0.0171279
689.358	0.0171937
689.436	0.0171086
689.514	0.0171461
689.592	0.0171368
689.670	0.0170055
689.748	0.0171674
689.826	0.0169927
689.905	0.0169893
689.983	0.0168035
690.061	0.0167637
690.139	0.0167653
690.217	0.0167919
690.295	0.0166740
690.373	0.0165018
690.451	0.0165574
690.530	0.0163616
690.608	0.0164758
690.686	0.0163476
690.764	0.0162003
690.842	0.0161134
690.920	0.0159535
690.998	0.0158057
691.076	0.0157614
691.155	0.0155602
691.233	0.0155643
691.311	0.0154507
691.389	0.0152689
691.467	0.0151527
691.545	0.0151151
691.623	0.0149913
691.701	0.0149496
691.780	0.0148537
691.858	0.0147258
691.936	0.0146129
692.014	0.0146960
692.092	0.0145906
692.170	0.0145751
692.248	0.0145317
692.326	0.0145572
692.405	0.0145705
692.483	0.0147405
692.561	0.0147807
692.639	0.0149548
692.717	0.0150697
692.795	0.0152397
692.873	0.0155502
692.951	0.0157745
693.030	0.0159297
693.108	0.0162674
693.186	0.0163885
693.264	0.0166756
693.342	0.0168498
693.420	0.0171675
693.498	0.0173396
693.576	0.0173671
693.655	0.0175659
693.733	0.0175002
693.811	0.0174986
693.889	0.0175730
693.967	0.0174075
694.045	0.0173295
694.123	0.0172930
694.201	0.0173192
694.280	0.0170618
694.358	0.0168876
694.436	0.0168312
694.514	0.0165936
694.592	0.0163383
694.670	0.0164507
694.748	0.0162615
694.826	0.0162408
694.905	0.0163693
694.983	0.0161144
695.061	0.0162521
695.139	0.0160811
695.217	0.0160986
695.295	0.0160844
695.373	0.0161433
695.451	0.0161507
695.530	0.0161166
695.608	0.0162431
695.686	0.0163515
695.764	0.0162294
695.842	0.0163068
695.920	0.0162601
695.998	0.0163430
696.076	0.0162702
696.155	0.0162413
696.233	0.0164438
696.311	0.0162099
696.389	0.0161692
696.467	0.0161548
696.545	0.0160540
696.623	0.0160797
696.701	0.0159513
696.780	0.0158658
696.858	0.0158197
696.936	0.0156207
697.014	0.0156860
697.092	0.0156447
697.170	0.0154755
697.248	0.0153677
697.326	0.0151999
697.405	0.0153996
697.483	0.0152930
697.561	0.0151646
697.639	0.0151743
697.717	0.0151540
697.795	0.0150240
697.873	0.0150795
697.951	0.0149964
698.030	0.0149910
698.108	0.0151749
698.186	0.0150577
698.264	0.0149791
698.342	0.0150346
698.420	0.0152139
698.498	0.0152013
698.576	0.0152040
698.655	0.0151354
698.733	0.0150927
698.811	0.0151953
698.889	0.0153384
698.967	0.0153564
699.045	0.0153978
699.123	0.0153820
699.201	0.0155782
699.280	0.0156775
699.358	0.0158143
699.436	0.0159306
699.514	0.0159338
699.592	0.0160825
699.670	0.0161872
699.748	0.0164120
699.826	0.0166711
699.905	0.0166491
699.983	0.0168747
700.061	0.0169898
700.139	0.0170196
700.217	0.0171307
700.295	0.0174319
700.373	0.0175841
700.451	0.0175529
700.530	0.0175216
700.608	0.0176172
700.686	0.0176882
700.764	0.0175562
700.842	0.0174877
700.920	0.0175177
700.998	0.0174908
701.076	0.0173512
701.155	0.0173006
701.233	0.0171580
701.311	0.0170218
701.389	0.0168994
701.467	0.0167270
701.545	0.0166783
701.623	0.0165002
701.701	0.0164236
701.780	0.0163920
701.858	0.0162720
701.936	0.0160262
702.014	0.0159351
702.092	0.0158403
702.170	0.0157491
702.248	0.0157782
702.326	0.0156523
702.405	0.0153653
702.483	0.0155387
702.561	0.0153913
702.639	0.0153256
702.717	0.0154125
702.795	0.0150995
702.873	0.0150249
702.951	0.0149847
703.030	0.0148254
703.108	0.0149065
703.186	0.0149081
703.264	0.0147533
703.342	0.0149136
703.420	0.0149815
703.498	0.0148922
703.576	0.0149686
703.655	0.0149548
703.733	0.0150084
703.811	0.0150951
703.889	0.0152595
703.967	0.0154528
704.045	0.0155031
704.123	0.0155773
704.201	0.0157211
704.280	0.0158633
704.358	0.0159148
704.436	0.0162163
704.514	0.0162427
704.592	0.0164798
704.670	0.0166347
704.748	0.0168182
704.826	0.0167052
704.905	0.0169482
704.983	0.0170755
705.061	0.0170593
705.139	0.0171935
705.217	0.0172871
705.295	0.0171168
705.373	0.0171152
705.451	0.0171375
705.530	0.0171556
705.608	0.0170158
705.686	0.0167975
705.764	0.0170042
705.842	0.0167183
705.920	0.0168266
705.998	0.0167670
706.076	0.0167420
706.155	0.0165483
706.233	0.0163963
706.311	0.0163754
706.389	0.0163992
706.467	0.0162196
706.545	0.0162115
706.623	0.0162875
706.701	0.0162623
706.780	0.0162312
706.858	0.0161948
706.936	0.0161718
707.014	0.0162428
707.092	0.0162069
707.170	0.0161447
707.248	0.0161557
707.326	0.0161664
707.405	0.0162189
707.483	0.0161561
707.561	0.0160817
707.639	0.0162326
707.717	0.0162275
707.795	0.0160386
707.873	0.0161735
707.951	0.0161473
708.030	0.0161691
708.108	0.0162018
708.186	0.0161506
708.264	0.0161045
708.342	0.0160252
708.420	0.0160623
708.498	0.0159676
708.576	0.0158052
708.655	0.0157615
708.733	0.0157362
708.811	0.0157179
708.889	0.0155233
708.967	0.0156941
709.045	0.0155496
709.123	0.0154456
709.201	0.0154844
709.280	0.0155235
709.358	0.0154101
709.436	0.0154428
709.514	0.0155006
709.592	0.0154215
709.670	0.0154813
709.748	0.0155838
709.826	0.0154868
709.905	0.0154924
709.983	0.0157713
710.061	0.0157307
710.139	0.0158183
710.217	0.0158688
710.295	0.0158580
710.373	0.0160115
710.451	0.0159237
710.530	0.0160921
710.608	0.0162305
710.686	0.0162138
710.764	0.0162000
710.842	0.0160954
710.920	0.0161629
710.998	0.0162856
711.076	0.0162791
711.155	0.0163192
711.233	0.0161536
711.311	0.0160775
711.389	0.0161456
711.467	0.0162387
711.545	0.0161533
711.623	0.0160593
711.701	0.0161393
711.780	0.0161340
711.858	0.0161710
711.936	0.0162678
712.014	0.0162571
712.092	0.0163142
712.170	0.0163348
712.248	0.0163219
712.326	0.0163474
712.405	0.0164149
712.483	0.0164152
712.561	0.0164546
712.639	0.0164437
712.717	0.0163418
712.795	0.0164128
712.873	0.0162845
712.951	0.0162003
713.030	0.0160785
713.108	0.0160815
713.186	0.0160523
713.264	0.0160162
713.342	0.0159804
713.420	0.0158819
713.498	0.0156750
713.576	0.0156132
713.655	0.0154729
713.733	0.0154404
713.811	0.0153343
713.889	0.0152468
713.967	0.0150198
714.045	0.0149493
714.123	0.0149072
714.201	0.0152708
714.280	0.0150987
714.358	0.0151109
714.436	0.0151193
714.514	0.0151109
714.592	0.0152245
714.670	0.0151908
714.748	0.0151978
714.826	0.0154033
714.905	0.0154591
714.983	0.0153913
715.061	0.0154787
715.139	0.0156569
715.217	0.0157474
715.295	0.0158236
715.373	0.0158401
715.451	0.0156974
715.530	0.0157807
715.608	0.0158595
715.686	0.0160751
715.764	0.0160041
715.842	0.0160079
715.920	0.0160880
715.998	0.0161983
716.076	0.0162734
716.155	0.0162260
716.233	0.0164427
716.311	0.0164370
716.389	0.0165250
716.467	0.0169291
716.545	0.0167872
716.623	0.0168781
716.701	0.0170808
716.780	0.0171729
716.858	0.0170956
716.936	0.0171114
717.014	0.0170691
717.092	0.0169830
717.170	0.0169418
717.248	0.0169373
717.326	0.0167699
717.405	0.0164914
717.483	0.0163390
717.561	0.0163400
717.639	0.0161872
717.717	0.0158623
717.795	0.0157820
717.873	0.0156607
717.951	0.0154992
718.030	0.0152903
718.108	0.0151778
718.186	0.0152216
718.264	0.0150697
718.342	0.0152350
718.420	0.0149883
718.498	0.0152305
718.576	0.0152020
718.655	0.0152963
718.733	0.0154804
718.811	0.0156075
718.889	0.0157397
718.967	0.0158495
719.045	0.0159093
719.123	0.0159962
719.201	0.0161160
719.280	0.0161649
719.358	0.0164391
719.436	0.0163520
719.514	0.0164750
719.592	0.0164902
719.670	0.0167103
719.748	0.0164357
719.826	0.0164059
719.905	0.0164811
719.983	0.0164442
720.061	0.0164220
720.139	0.0163258
720.217	0.0162984
720.295	0.0161055
720.373	0.0160023
720.451	0.0162077
720.530	0.0161455
720.608	0.0160818
720.686	0.0160992
720.764	0.0160561
720.842	0.0159884
720.920	0.0159484
720.998	0.0161003
721.076	0.0161111
721.155	0.0161672
721.233	0.0163219
721.311	0.0163237
721.389	0.0161697
721.467	0.0162842
721.545	0.0163958
721.623	0.0165344
721.701	0.0164149
721.780	0.0163351
721.858	0.0165337
721.936	0.0166438
722.014	0.0165127
722.092	0.0164056
722.170	0.0162715
722.248	0.0163255
722.326	0.0163814
722.405	0.0162914
722.483	0.0161223
722.561	0.0159493
722.639	0.0160352
722.717	0.0160275
722.795	0.0159058
722.873	0.0159112
722.951	0.0158931
723.030	0.0159086
723.108	0.0158723
723.186	0.0158927
723.264	0.0160287
723.342	0.0161530
723.420	0.0163451
723.498	0.0162524
723.576	0.0161212
723.655	0.0164035
723.733	0.0162862
723.811	0.0163322
723.889	0.0163129
723.967	0.0163554
724.045	0.0162900
724.123	0.0162976
724.201	0.0162700
724.280	0.0162315
724.358	0.0162540
724.436	0.0161889
724.514	0.0160767
724.592	0.0160420
724.670	0.0158289
724.748	0.0158547
724.826	0.0157330
724.905	0.0157347
724.983	0.0157603
725.061	0.0158750
725.139	0.0158970
725.217	0.0156667
725.295	0.0158497
725.373	0.0157574
725.451	0.0155697
725.530	0.0157336
725.608	0.0157393
725.686	0.0157404
725.764	0.0157601
725.842	0.0157083
725.920	0.0157378
725.998	0.0157437
726.076	0.0155347
726.155	0.0156555
726.233	0.0157216
726.311	0.0156217
726.389	0.0157082
726.467	0.0155190
726.545	0.0157565
726.623	0.0157802
726.701	0.0158030
726.780	0.0157842
726.858	0.0158961
726.936	0.0158837
727.014	0.0158425
727.092	0.0160514
727.170	0.0161108
727.248	0.0160826
727.326	0.0161071
727.405	0.0161754
727.483	0.0160958
727.561	0.0161511
727.639	0.0162687
727.717	0.0162154
727.795	0.0161491
727.873	0.0161685
727.951	0.0161179
728.030	0.0162570
728.108	0.0161124
728.186	0.0160729
728.264	0.0160944
728.342	0.0160632
728.420	0.0159581
728.498	0.0160881
728.576	0.0161050
728.655	0.0160718
728.733	0.0159673
728.811	0.0159355
728.889	0.0157783
728.967	0.0158654
729.045	0.0158971
729.123	0.0158668
729.201	0.0158917
729.280	0.0159182
729.358	0.0159966
729.436	0.0160069
729.514	0.0159863
729.592	0.0160219
729.670	0.0161017
729.748	0.0161283
729.826	0.0161263
729.905	0.0162811
729.983	0.0162028
730.061	0.0162207
730.139	0.0162506
730.217	0.0162561
730.295	0.0162709
730.373	0.0162394
730.451	0.0161230
730.530	0.0162576
730.608	0.0162336
730.686	0.0160906
730.764	0.0162220
730.842	0.0162017
730.920	0.0162617
730.998	0.0162484
731.076	0.0160909
731.155	0.0162941
731.233	0.0163127
731.311	0.0164580
731.389	0.0164285
731.467	0.0165094
731.545	0.0164140
731.623	0.0164082
731.701	0.0165198
731.780	0.0163035
731.858	0.0163694
731.936	0.0165457
732.014	0.0163273
732.092	0.0164510
732.170	0.0162448
732.248	0.0160448
732.326	0.0162738
732.405	0.0159709
732.483	0.0158527
732.561	0.0158205
732.639	0.0157832
732.717	0.0156164
732.795	0.0153372
732.873	0.0153941
732.951	0.0153194
733.030	0.0152773
733.108	0.0149983
733.186	0.0150581
733.264	0.0150347
733.342	0.0149825
733.420	0.0152374
733.498	0.0151764
733.576	0.0152074
733.655	0.0154140
733.733	0.0155288
733.811	0.0154762
733.889	0.0156017
733.967	0.0157099
734.045	0.0158324
734.123	0.0158048
734.201	0.0159527
734.280	0.0161516
734.358	0.0163062
734.436	0.0164524
734.514	0.0165022
734.592	0.0164104
734.670	0.0165777
734.748	0.0165442
734.826	0.0165524
734.905	0.0166528
734.983	0.0166706
735.061	0.0167038
735.139	0.0165424
735.217	0.0165287
735.295	0.0165332
735.373	0.0164413
735.451	0.0164817
735.530	0.0163972
735.608	0.0162556
735.686	0.0162900
735.764	0.0161873
735.842	0.0161517
735.920	0.0160828
735.998	0.0159859
736.076	0.0161828
736.155	0.0160555
736.233	0.0160561
736.311	0.0159373
736.389	0.0158913
736.467	0.0159198
736.545	0.0158360
736.623	0.0156779
736.701	0.0157540
736.780	0.0156284
736.858	0.0156640
736.936	0.0156702
737.014	0.0157108
737.092	0.0157156
737.170	0.0156124
737.248	0.0156701
737.326	0.0156300
737.405	0.0158088
737.483	0.0155734
737.561	0.0156388
737.639	0.0157005
737.717	0.0157224
737.795	0.0157502
737.873	0.0157106
737.951	0.0156602
738.030	0.0157011
738.108	0.0156938
738.186	0.0158510
738.264	0.0160280
738.342	0.0159139
738.420	0.0159867
738.498	0.0160868
738.576	0.0160323
738.655	0.0161522
738.733	0.0162389
738.811	0.0162411
738.889	0.0162456
738.967	0.0163915
739.045	0.0162768
739.123	0.0162724
739.201	0.0163312
739.280	0.0162825
739.358	0.0162340
739.436	0.0162723
739.514	0.0163421
739.592	0.0162684
739.670	0.0161779
739.748	0.0161040
739.826	0.0161784
739.905	0.0160773
739.983	0.0158593
740.061	0.0160890
740.139	0.0160120
740.217	0.0158198
740.295	0.0158090
740.373	0.0158387
740.451	0.0157801
740.530	0.0156380
740.608	0.0156063
740.686	0.0157100
740.764	0.0156332
740.842	0.0155697
740.920	0.0156318
740.998	0.0157049
741.076	0.0156803
741.155	0.0156564
741.233	0.0154807
741.311	0.0155803
741.389	0.0156809
741.467	0.0157318
741.545	0.0157494
741.623	0.0157874
741.701	0.0157455
741.780	0.0158327
741.858	0.0159026
741.936	0.0160767
742.014	0.0160113
742.092	0.0159666
742.170	0.0161797
742.248	0.0161059
742.326	0.0161442
742.405	0.0161692
742.483	0.0161551
742.561	0.0160961
742.639	0.0160320
742.717	0.0160861
742.795	0.0162089
742.873	0.0160335
742.951	0.0160250
743.030	0.0160341
743.108	0.0159254
743.186	0.0161121
743.264	0.0160529
743.342	0.0160062
743.420	0.0160314
743.498	0.0160176
743.576	0.0159918
743.655	0.0160753
743.733	0.0160751
743.811	0.0158943
743.889	0.0159332
743.967	0.0161185
744.045	0.0159885
744.123	0.0160032
744.201	0.0160056
744.280	0.0159857
744.358	0.0158138
744.436	0.0158877
744.514	0.0158955
744.592	0.0159858
744.670	0.0159876
744.748	0.0160698
744.826	0.0158625
744.905	0.0159358
744.983	0.0160564
745.061	0.0161849
745.139	0.0160040
745.217	0.0159882
745.295	0.0161046
745.373	0.0161211
745.451	0.0162901
745.530	0.0160276
745.608	0.0161547
745.686	0.0161660
745.764	0.0162578
745.842	0.0162932
745.920	0.0163201
745.998	0.0160858
746.076	0.0162273
746.155	0.0161055
746.233	0.0162536
746.311	0.0162405
746.389	0.0161977
746.467	0.0161349
746.545	0.0161220
746.623	0.0162148
746.701	0.0162208
746.780	0.0163271
746.858	0.0163510
746.936	0.0164249
747.014	0.0163653
747.092	0.0164323
747.170	0.0164722
747.248	0.0164088
747.326	0.0164541
747.405	0.0165162
747.483	0.0163727
747.561	0.0164194
747.639	0.0163294
747.717	0.0163911
747.795	0.0163445
747.873	0.0163945
747.951	0.0162115
748.030	0.0162028
748.108	0.0161497
748.186	0.0159296
748.264	0.0158627
748.342	0.0158925
748.420	0.0159311
748.498	0.0157129
748.576	0.0158456
748.655	0.0156925
748.733	0.0156716
748.811	0.0156391
748.889	0.0157375
748.967	0.0158189
749.045	0.0156509
749.123	0.0157928
749.201	0.0157250
749.280	0.0158262
749.358	0.0159366
749.436	0.0160317
749.514	0.0159902
749.592	0.0161111
749.670	0.0162677
749.748	0.0162193
749.826	0.0161504
749.905	0.0162205
749.983	0.0163690
750.061	0.0163157
750.139	0.0162535
750.217	0.0163398
750.295	0.0162291
750.373	0.0162725
750.451	0.0161698
750.530	0.0162656
750.608	0.0161713
750.686	0.0162068
750.764	0.0161690
750.842	0.0161102
750.920	0.0161032
750.998	0.0161300
751.076	0.0161782
751.155	0.0161830
751.233	0.0161123
751.311	0.0161237
751.389	0.0161475
751.467	0.0161360
751.545	0.0160258
751.623	0.0161880
751.701	0.0161665
751.780	0.0161530
751.858	0.0160867
751.936	0.0160123
752.014	0.0161498
752.092	0.0160534
752.170	0.0159976
752.248	0.0160211
752.326	0.0159037
752.405	0.0159078
752.483	0.0158811
752.561	0.0158125
752.639	0.0159236
752.717	0.0159673
752.795	0.0159686
752.873	0.0158935
752.951	0.0158531
753.030	0.0159214
753.108	0.0159155
753.186	0.0160587
753.264	0.0159654
753.342	0.0160442
753.420	0.0160442
753.498	0.0161385
753.576	0.0160430
753.655	0.0159461
753.733	0.0159786
753.811	0.0159764
753.889	0.0160326
753.967	0.0159628
754.045	0.0159645
754.123	0.0160370
754.201	0.0158497
754.280	0.0160360
754.358	0.0158834
754.436	0.0157658
754.514	0.0157526
754.592	0.0158770
754.670	0.0159539
754.748	0.0159583
754.826	0.0160271
754.905	0.0159930
754.983	0.0160107
755.061	0.0160417
755.139	0.0160062
755.217	0.0160971
755.295	0.0161351
755.373	0.0161548
755.451	0.0161823
755.530	0.0162563
755.608	0.0160920
755.686	0.0159862
755.764	0.0159464
755.842	0.0159411
755.920	0.0159078
755.998	0.0157677
756.076	0.0156982
756.155	0.0155996
756.233	0.0155323
756.311	0.0156271
756.389	0.0154317
756.467	0.0154327
756.545	0.0153966
756.623	0.0154958
756.701	0.0154196
756.780	0.0153632
756.858	0.0154422
756.936	0.0153655
757.014	0.0155369
757.092	0.0156888
757.170	0.0157436
757.248	0.0158445
757.326	0.0158641
757.405	0.0157431
757.483	0.0158813
757.561	0.0159260
757.639	0.0161015
757.717	0.0160596
757.795	0.0159174
757.873	0.0158935
757.951	0.0159467
758.030	0.0158086
758.108	0.0159043
758.186	0.0158527
758.264	0.0160144
758.342	0.0158924
758.420	0.0158416
758.498	0.0159116
758.576	0.0159196
758.655	0.0159437
758.733	0.0159048
758.811	0.0158671
758.889	0.0160619
758.967	0.0160137
759.045	0.0160464
759.123	0.0160878
759.201	0.0162193
759.280	0.0161967
759.358	0.0160676
759.436	0.0162487
759.514	0.0163206
759.592	0.0160911
759.670	0.0161975
759.748	0.0161351
759.826	0.0160040
759.905	0.0161829
759.983	0.0159900
760.061	0.0158778
760.139	0.0160520
760.217	0.0159783
760.295	0.0158556
760.373	0.0157427
760.451	0.0157393
760.530	0.0159560
760.608	0.0157618
760.686	0.0158620
760.764	0.0158878
760.842	0.0158085
760.920	0.0158274
760.998	0.0158290
761.076	0.0159653
761.155	0.0161024
761.233	0.0159257
761.311	0.0161621
761.389	0.0161781
761.467	0.0159888
761.545	0.0162434
761.623	0.0162209
761.701	0.0159304
761.780	0.0161288
761.858	0.0159910
761.936	0.0160276
762.014	0.0159388
762.092	0.0160538
762.170	0.0158987
762.248	0.0158798
762.326	0.0159528
762.405	0.0159245
762.483	0.0160314
762.561	0.0160803
762.639	0.0159170
762.717	0.0159656
762.795	0.0162521
762.873	0.0160278
762.951	0.0160937
763.030	0.0161197
763.108	0.0163294
763.186	0.0162794
763.264	0.0162120
763.342	0.0161783
763.420	0.0161829
763.498	0.0160669
763.576	0.0160702
763.655	0.0160828
763.733	0.0160502
763.811	0.0159277
763.889	0.0159218
763.967	0.0158183
764.045	0.0158030
764.123	0.0155817
764.201	0.0156090
764.280	0.0156125
764.358	0.0155372
764.436	0.0155300
764.514	0.0155412
764.592	0.0153839
764.670	0.0154324
764.748	0.0154534
764.826	0.0153547
764.905	0.0154027
764.983	0.0153123
765.061	0.0155753
765.139	0.0156386
765.217	0.0157732
765.295	0.0158701
765.373	0.0159818
765.451	0.0160022
765.530	0.0161425
765.608	0.0160287
765.686	0.0160292
765.764	0.0161339
765.842	0.0161646
765.920	0.0162360
765.998	0.0161032
766.076	0.0162547
766.155	0.0161701
766.233	0.0159618
766.311	0.0160632
766.389	0.0159599
766.467	0.0161159
766.545	0.0160496
766.623	0.0158879
766.701	0.0158953
766.780	0.0160001
766.858	0.0160201
766.936	0.0160411
767.014	0.0160130
767.092	0.0160067
767.170	0.0160309
767.248	0.0160081
767.326	0.0160953
767.405	0.0159579
767.483	0.0161419
767.561	0.0161282
767.639	0.0160804
767.717	0.0160898
767.795	0.0160349
767.873	0.0160765
767.951	0.0161012
768.030	0.0161160
768.108	0.0161362
768.186	0.0162345
768.264	0.0161638
768.342	0.0160753
768.420	0.0161980
768.498	0.0162343
768.576	0.0162039
768.655	0.0162630
768.733	0.0162253
768.811	0.0162712
768.889	0.0162379
768.967	0.0162862
769.045	0.0162825
769.123	0.0163144
769.201	0.0162938
769.280	0.0164247
769.358	0.0163961
769.436	0.0162737
769.514	0.0161841
769.592	0.0162786
769.670	0.0161901
769.748	0.0160756
769.826	0.0160468
769.905	0.0161353
769.983	0.0160917
770.061	0.0160795
770.139	0.0159799
770.217	0.0160072
770.295	0.0160237
770.373	0.0160917
770.451	0.0161453
770.530	0.0160990
770.608	0.0160199
770.686	0.0159740
770.764	0.0161937
770.842	0.0161588
770.920	0.0160810
770.998	0.0163575
771.076	0.0161383
771.155	0.0161333
771.233	0.0161017
771.311	0.0161523
771.389	0.0161527
771.467	0.0160242
771.545	0.0158906
771.623	0.0160542
771.701	0.0158116
771.780	0.0158465
771.858	0.0159641
771.936	0.0158355
772.014	0.0158474
772.092	0.0158604
772.170	0.0158916
772.248	0.0157362
772.326	0.0157591
772.405	0.0157171
772.483	0.0157573
772.561	0.0158558
772.639	0.0158469
772.717	0.0158148
772.795	0.0159869
772.873	0.0159464
772.951	0.0160005
773.030	0.0160796
773.108	0.0161158
773.186	0.0162277
773.264	0.0162324
773.342	0.0163009
773.420	0.0164145
773.498	0.0163329
773.576	0.0164695
773.655	0.0164407
773.733	0.0163986
773.811	0.0162489
773.889	0.0162911
773.967	0.0163929
774.045	0.0161742
774.123	0.0160886
774.201	0.0160217
774.280	0.0160214
774.358	0.0159596
774.436	0.0159151
774.514	0.0159222
774.592	0.0158855
774.670	0.0158735
774.748	0.0158775
774.826	0.0158625
774.905	0.0158669
774.983	0.0158287
775.061	0.0157828
775.139	0.0158073
775.217	0.0159468
775.295	0.0160006
775.373	0.0158331
775.451	0.0158482
775.530	0.0159109
775.608	0.0159174
775.686	0.0158577
775.764	0.0159653
775.842	0.0157590
775.920	0.0158469
775.998	0.0157683
776.076	0.0158913
776.155	0.0158100
776.233	0.0160615
776.311	0.0160136
776.389	0.0160085
776.467	0.0160716
776.545	0.0158695
776.623	0.0159782
776.701	0.0160215
776.780	0.0162057
776.858	0.0161395
776.936	0.0161056
777.014	0.0161181
777.092	0.0162095
777.170	0.0161807
777.248	0.0162174
777.326	0.0161590
777.405	0.0161808
777.483	0.0163533
777.561	0.0162952
777.639	0.0162274
777.717	0.0161388
777.795	0.0162773
777.873	0.0162199
777.951	0.0161172
778.030	0.0160843
778.108	0.0160310
778.186	0.0161090
778.264	0.0160619
778.342	0.0160274
778.420	0.0160893
778.498	0.0160373
778.576	0.0160020
778.655	0.0161663
778.733	0.0160493
778.811	0.0160116
778.889	0.0160340
778.967	0.0160957
779.045	0.0160920
779.123	0.0160693
779.201	0.0160397
779.280	0.0160529
779.358	0.0162074
779.436	0.0160644
779.514	0.0160845
779.592	0.0159742
779.670	0.0160841
779.748	0.0160370
779.826	0.0160620
779.905	0.0160068
779.983	0.0161700
780.061	0.0161588
780.139	0.0160725
780.217	0.0161324
780.295	0.0161316
780.373	0.0161031
780.451	0.0160386
780.530	0.0160981
780.608	0.0161793
780.686	0.0161925
780.764	0.0160943
780.842	0.0161488
780.920	0.0161742
780.998	0.0160608
781.076	0.0162240
781.155	0.0160735
781.233	0.0160722
781.311	0.0160999
781.389	0.0161003
781.467	0.0161105
781.545	0.0161668
781.623	0.0160645
781.701	0.0159723
781.780	0.0159833
781.858	0.0159385
781.936	0.0159414
782.014	0.0158746
782.092	0.0158768
782.170	0.0158992
782.248	0.0157760
782.326	0.0156954
782.405	0.0155984
782.483	0.0154990
782.561	0.0155348
782.639	0.0156493
782.717	0.0154703
782.795	0.0155218
782.873	0.0154333
782.951	0.0155675
783.030	0.0155959
783.108	0.0156429
783.186	0.0156478
783.264	0.0156818
783.342	0.0156313
783.420	0.0158478
783.498	0.0157253
783.576	0.0157270
783.655	0.0158376
783.733	0.0158952
783.811	0.0159067
783.889	0.0159332
783.967	0.0159312
784.045	0.0159341
784.123	0.0159789
784.201	0.0159644
784.280	0.0159264
784.358	0.0159592
784.436	0.0159127
784.514	0.0160545
784.592	0.0161059
784.670	0.0158773
784.748	0.0158632
784.826	0.0160066
784.905	0.0161040
784.983	0.0159763
785.061	0.0159866
785.139	0.0159969
785.217	0.0160838
785.295	0.0158548
785.373	0.0158680
785.451	0.0159374
785.530	0.0160323
785.608	0.0159358
785.686	0.0160454
785.764	0.0159655
785.842	0.0159507
785.920	0.0160122
785.998	0.0158610
786.076	0.0159019
786.155	0.0159016
786.233	0.0160217
786.311	0.0159309
786.389	0.0159490
786.467	0.0160291
786.545	0.0160808
786.623	0.0160674
786.701	0.0159926
786.780	0.0160169
786.858	0.0161452
786.936	0.0160888
787.014	0.0161112
787.092	0.0161521
787.170	0.0160069
787.248	0.0160809
787.326	0.0160765
787.405	0.0159794
787.483	0.0160284
787.561	0.0159607
787.639	0.0158443
787.717	0.0157425
787.795	0.0158290
787.873	0.0158454
787.951	0.0156445
788.030	0.0157100
788.108	0.0154897
788.186	0.0156521
788.264	0.0156293
788.342	0.0156950
788.420	0.0156660
788.498	0.0157462
788.576	0.0156863
788.655	0.0156641
788.733	0.0156529
788.811	0.0157637
788.889	0.0158283
788.967	0.0158631
789.045	0.0158485
789.123	0.0157834
789.201	0.0157745
789.280	0.0159814
789.358	0.0159718
789.436	0.0159049
789.514	0.0160139
789.592	0.0160596
789.670	0.0161111
789.748	0.0159632
789.826	0.0161478
789.905	0.0162637
789.983	0.0162647
790.061	0.0161013
790.139	0.0162997
790.217	0.0163424
790.295	0.0162962
790.373	0.0162308
790.451	0.0163522
790.530	0.0163457
790.608	0.0163691
790.686	0.0161729
790.764	0.0164306
790.842	0.0161729
790.920	0.0162405
790.998	0.0162899
791.076	0.0162543
791.155	0.0163115
791.233	0.0163123
791.311	0.0163664
791.389	0.0163400
791.467	0.0164269
791.545	0.0164526
791.623	0.0163762
791.701	0.0162311
791.780	0.0164631
791.858	0.0163928
791.936	0.0164984
792.014	0.0162411
792.092	0.0164695
792.170	0.0163227
792.248	0.0166004
792.326	0.0165781
792.405	0.0166199
792.483	0.0164355
792.561	0.0162424
792.639	0.0164045
792.717	0.0163949
792.795	0.0162634
792.873	0.0162758
792.951	0.0161545
793.030	0.0162269
793.108	0.0161520
793.186	0.0160641
793.264	0.0161489
793.342	0.0158640
793.420	0.0157941
793.498	0.0157339
793.576	0.0157399
793.655	0.0156494
793.733	0.0156446
793.811	0.0156464
793.889	0.0154527
793.967	0.0156626
794.045	0.0156281
794.123	0.0155253
794.201	0.0155037
794.280	0.0156672
794.358	0.0156702
794.436	0.0154742
794.514	0.0155717
794.592	0.0155919
794.670	0.0155928
794.748	0.0156949
794.826	0.0156355
794.905	0.0156776
794.983	0.0156756
795.061	0.0156570
795.139	0.0156238
795.217	0.0157249
795.295	0.0157043
795.373	0.0158564
795.451	0.0158529
795.530	0.0157867
795.608	0.0158890
795.686	0.0157076
795.764	0.0159008
795.842	0.0159358
795.920	0.0159339
795.998	0.0158303
796.076	0.0160075
796.155	0.0161153
796.233	0.0160513
796.311	0.0160042
796.389	0.0161246
796.467	0.0161617
796.545	0.0162585
796.623	0.0163200
796.701	0.0162764
796.780	0.0163784
796.858	0.0164160
796.936	0.0165392
797.014	0.0163972
797.092	0.0164802
797.170	0.0165080
797.248	0.0164207
797.326	0.0164886
797.405	0.0164996
797.483	0.0164693
797.561	0.0165548
797.639	0.0165659
797.717	0.0164385
797.795	0.0163403
797.873	0.0164071
797.951	0.0161707
798.030	0.0163088
798.108	0.0162846
798.186	0.0162070
798.264	0.0161213
798.342	0.0161904
798.420	0.0161228
798.498	0.0160279
798.576	0.0160382
798.655	0.0160098
798.733	0.0158237
798.811	0.0159161
798.889	0.0159277
798.967	0.0158131
799.045	0.0158077
799.123	0.0157353
799.201	0.0157042
799.280	0.0156977
799.358	0.0157668
799.436	0.0158057
799.514	0.0158235
799.592	0.0158138
799.670	0.0157726
799.748	0.0157864
799.826	0.0157507
799.905	0.0158740
799.983	0.0159030
800.061	0.0159778
800.139	0.0160479
800.217	0.0160538
800.295	0.0160229
800.373	0.0160789
800.451	0.0161990
800.530	0.0162050
800.608	0.0162274
800.686	0.0162500
800.764	0.0164268
800.842	0.0163823
800.920	0.0162949
800.998	0.0162840
801.076	0.0163406
801.155	0.0163091
801.233	0.0163108
801.311	0.0164146
801.389	0.0162650
801.467	0.0164729
801.545	0.0164086
801.623	0.0162785
801.701	0.0162787
801.780	0.0163829
801.858	0.0162376
801.936	0.0162407
802.014	0.0164219
802.092	0.0163326
802.170	0.0162054
802.248	0.0162752
802.326	0.0162537
802.405	0.0163504
802.483	0.0164365
802.561	0.0162859
802.639	0.0162260
802.717	0.0164191
802.795	0.0162923
802.873	0.0163995
802.951	0.0162914
803.030	0.0162599
803.108	0.0163139
803.186	0.0163539
803.264	0.0162703
803.342	0.0162382
803.420	0.0161929
803.498	0.0161990
803.576	0.0161776
803.655	0.0161944
803.733	0.0161092
803.811	0.0162185
803.889	0.0160472
803.967	0.0161637
804.045	0.0161588
804.123	0.0161332
804.201	0.0160762
804.280	0.0161512
804.358	0.0162148
804.436	0.0161256
804.514	0.0161694
804.592	0.0161449
804.670	0.0160815
804.748	0.0160231
804.826	0.0161708
804.905	0.0161078
804.983	0.0161475
805.061	0.0160014
805.139	0.0161472
805.217	0.0159985
805.295	0.0158888
805.373	0.0159600
805.451	0.0159539
805.530	0.0158405
805.608	0.0158939
805.686	0.0158820
805.764	0.0157897
805.842	0.0159027
805.920	0.0159193
805.998	0.0158826
806.076	0.0158233
806.155	0.0159048
806.233	0.0158177
806.311	0.0158511
806.389	0.0159212
806.467	0.0160211
806.545	0.0161180
806.623	0.0160741
806.701	0.0161092
806.780	0.0159924
806.858	0.0158856
806.936	0.0160152
807.014	0.0161762
807.092	0.0160433
807.170	0.0157985
807.248	0.0159505
807.326	0.0159206
807.405	0.0160000
807.483	0.0160229
807.561	0.0159134
807.639	0.0159465
807.717	0.0157761
807.795	0.0160012
807.873	0.0159637
807.951	0.0158106
808.030	0.0158735
808.108	0.0160087
808.186	0.0160777
808.264	0.0160744
808.342	0.0159903
808.420	0.0160198
808.498	0.0161415
808.576	0.0159838
808.655	0.0160805
808.733	0.0161002
808.811	0.0161458
808.889	0.0160926
808.967	0.0161842
809.045	0.0160677
809.123	0.0160370
809.201	0.0160246
809.280	0.0160158
809.358	0.0161640
809.436	0.0159196
809.514	0.0159966
809.592	0.0160114
809.670	0.0158755
809.748	0.0161203
809.826	0.0158461
809.905	0.0159015
809.983	0.0158693
810.061	0.0158701
810.139	0.0158839
810.217	0.0160254
810.295	0.0159647
810.373	0.0158498
810.451	0.0159020
810.530	0.0158594
810.608	0.0157811
810.686	0.0159560
810.764	0.0158892
810.842	0.0159557
810.920	0.0159833
810.998	0.0159045
811.076	0.0158463
811.155	0.0157436
811.233	0.0156893
811.311	0.0157953
811.389	0.0159425
811.467	0.0158439
811.545	0.0157460
811.623	0.0158974
811.701	0.0159438
811.780	0.0160107
811.858	0.0158913
811.936	0.0160569
812.014	0.0160612
812.092	0.0160717
812.170	0.0161691
812.248	0.0160973
812.326	0.0160631
812.405	0.0163080
812.483	0.0161133
812.561	0.0163752
812.639	0.0164282
812.717	0.0163218
812.795	0.0163389
812.873	0.0163369
812.951	0.0162470
813.030	0.0162282
813.108	0.0162107
813.186	0.0162935
813.264	0.0162097
813.342	0.0161040
813.420	0.0160497
813.498	0.0161609
813.576	0.0161976
813.655	0.0161515
813.733	0.0161105
813.811	0.0161211
813.889	0.0160121
813.967	0.0160757
814.045	0.0160467
814.123	0.0159310
814.201	0.0160324
814.280	0.0158118
814.358	0.0158454
814.436	0.0158557
814.514	0.0158568
814.592	0.0157846
814.670	0.0156577
814.748	0.0156695
814.826	0.0157214
814.905	0.0157898
814.983	0.0158403
815.061	0.0157001
815.139	0.0156329
815.217	0.0157295
815.295	0.0158546
815.373	0.0156841
815.451	0.0156493
815.530	0.0156453
815.608	0.0157761
815.686	0.0157427
815.764	0.0159065
815.842	0.0157882
815.920	0.0158913
815.998	0.0159138
816.076	0.0158878
816.155	0.0159057
816.233	0.0160579
816.311	0.0159637
816.389	0.0161536
816.467	0.0162367
816.545	0.0162125
816.623	0.0161072
816.701	0.0162740
816.780	0.0162284
816.858	0.0162839
816.936	0.0162472
817.014	0.0163948
817.092	0.0163039
817.170	0.0162467
817.248	0.0163778
817.326	0.0161971
817.405	0.0161308
817.483	0.0161943
817.561	0.0161167
817.639	0.0159950
817.717	0.0162725
817.795	0.0160316
817.873	0.0160673
817.951	0.0160174
818.030	0.0160191
818.108	0.0160237
818.186	0.0159938
818.264	0.0160744
818.342	0.0159872
818.420	0.0160780
818.498	0.0160616
818.576	0.0160639
818.655	0.0160730
818.733	0.0159135
818.811	0.0159595
818.889	0.0159515
818.967	0.0159188
819.045	0.0159163
819.123	0.0158396
819.201	0.0159417
819.280	0.0158895
819.358	0.0157648
819.436	0.0158849
819.514	0.0159582
819.592	0.0156931
819.670	0.0156020
819.748	0.0158842
819.826	0.0159034
819.905	0.0158070
819.983	0.0158015
820.061	0.0159624
820.139	0.0159151
820.217	0.0159525
820.295	0.0159454
820.373	0.0160268
820.451	0.0160726
820.530	0.0160976
820.608	0.0160939
820.686	0.0161374
820.764	0.0160564
820.842	0.0160073
820.920	0.0161949
820.998	0.0161382
821.076	0.0161774
821.155	0.0161145
821.233	0.0159026
821.311	0.0160677
821.389	0.0161371
821.467	0.0159655
821.545	0.0158727
821.623	0.0161124
821.701	0.0161051
821.780	0.0160925
821.858	0.0161898
821.936	0.0160336
822.014	0.0161208
822.092	0.0161234
822.170	0.0162080
822.248	0.0162258
822.326	0.0160477
822.405	0.0159544
822.483	0.0162330
822.561	0.0162157
822.639	0.0163104
822.717	0.0161914
822.795	0.0163824
822.873	0.0162747
822.951	0.0161822
823.030	0.0162633
823.108	0.0162206
823.186	0.0161928
823.264	0.0163155
823.342	0.0162566
823.420	0.0161767
823.498	0.0161795
823.576	0.0161709
823.655	0.0162339
823.733	0.0159908
823.811	0.0160358
823.889	0.0161632
823.967	0.0161232
824.045	0.0161044
824.123	0.0159617
824.201	0.0161612
824.280	0.0161628
824.358	0.0161359
824.436	0.0161343
824.514	0.0164719
824.592	0.0163187
824.670	0.0162818
824.748	0.0162432
824.826	0.0162926
824.905	0.0163309
824.983	0.0162968
825.061	0.0162959
825.139	0.0161826
825.217	0.0161658
825.295	0.0163094
825.373	0.0161612
825.451	0.0162505
825.530	0.0160983
825.608	0.0160794
825.686	0.0160905
825.764	0.0158994
825.842	0.0160892
825.920	0.0159936
825.998	0.0159452
826.076	0.0159883
826.155	0.0158438
826.233	0.0159937
826.311	0.0159951
826.389	0.0160416
826.467	0.0159581
826.545	0.0160753
826.623	0.0159125
826.701	0.0159309
826.780	0.0158782
826.858	0.0157911
826.936	0.0159270
827.014	0.0159485
827.092	0.0157167
827.170	0.0158752
827.248	0.0159440
827.326	0.0160445
827.405	0.0158582
827.483	0.0157526
827.561	0.0157577
827.639	0.0158002
827.717	0.0158928
827.795	0.0160013
827.873	0.0159395
827.951	0.0159270
828.030	0.0160272
828.108	0.0158861
828.186	0.0158247
828.264	0.0159455
828.342	0.0160803
828.420	0.0160588
828.498	0.0160484
828.576	0.0159793
828.655	0.0159640
828.733	0.0160632
828.811	0.0159609
828.889	0.0159872
828.967	0.0160848
829.045	0.0158528
829.123	0.0158284
829.201	0.0158533
829.280	0.0158607
829.358	0.0156833
829.436	0.0158192
829.514	0.0157153
829.592	0.0156940
829.670	0.0158182
829.748	0.0158103
829.826	0.0155961
829.905	0.0156117
829.983	0.0157094
830.061	0.0157411
830.139	0.0159023
830.217	0.0158210
830.295	0.0158920
830.373	0.0157200
830.451	0.0157955
830.530	0.0158060
830.608	0.0159740
830.686	0.0159182
830.764	0.0160429
830.842	0.0158276
830.920	0.0160092
830.998	0.0158859
831.076	0.0160117
831.155	0.0159978
831.233	0.0160762
831.311	0.0161381
831.389	0.0161073
831.467	0.0160088
831.545	0.0161361
831.623	0.0161691
831.701	0.0163157
831.780	0.0161988
831.858	0.0162524
831.936	0.0161373
832.014	0.0163050
832.092	0.0163303
832.170	0.0162706
832.248	0.0161658
832.326	0.0164135
832.405	0.0163433
832.483	0.0163292
832.561	0.0163734
832.639	0.0163647
832.717	0.0163550
832.795	0.0163241
832.873	0.0162239
832.951	0.0161742
833.030	0.0163206
833.108	0.0161581
833.186	0.0160688
833.264	0.0161903
833.342	0.0161787
833.420	0.0160203
833.498	0.0160874
833.576	0.0160472
833.655	0.0160339
833.733	0.0161481
833.811	0.0159402
833.889	0.0159985
833.967	0.0160240
834.045	0.0158994
834.123	0.0159447
834.201	0.0158463
834.280	0.0158377
834.358	0.0159230
834.436	0.0158019
834.514	0.0159488
834.592	0.0159385
834.670	0.0159863
834.748	0.0159836
834.826	0.0158791
834.905	0.0159341
834.983	0.0159609
835.061	0.0159019
835.139	0.0157908
835.217	0.0158894
835.295	0.0159957
835.373	0.0158888
835.451	0.0159053
835.530	0.0160203
835.608	0.0161187
835.686	0.0160563
835.764	0.0158484
835.842	0.0160263
835.920	0.0161205
835.998	0.0161098
836.076	0.0160561
836.155	0.0160352
836.233	0.0158964
836.311	0.0160651
836.389	0.0160572
836.467	0.0159888
836.545	0.0160995
836.623	0.0160852
836.701	0.0160810
836.780	0.0160395
836.858	0.0162550
836.936	0.0160316
837.014	0.0160506
837.092	0.0161681
837.170	0.0160624
837.248	0.0161587
837.326	0.0159536
837.405	0.0161964
837.483	0.0161721
837.561	0.0160107
837.639	0.0157932
837.717	0.0159423
837.795	0.0159415
837.873	0.0159488
837.951	0.0159338
838.030	0.0159772
838.108	0.0158976
838.186	0.0159686
838.264	0.0159309
838.342	0.0160142
838.420	0.0158579
838.498	0.0159547
838.576	0.0158203
838.655	0.0158670
838.733	0.0160583
838.811	0.0159857
838.889	0.0160125
838.967	0.0159888
839.045	0.0160001
839.123	0.0159565
839.201	0.0160906
839.280	0.0161295
839.358	0.0159459
839.436	0.0160165
839.514	0.0161110
839.592	0.0161279
839.670	0.0161253
839.748	0.0160920
839.826	0.0160250
839.905	0.0160086
839.983	0.0159524
840.061	0.0161265
840.139	0.0161738
840.217	0.0161066
840.295	0.0161565
840.373	0.0159251
840.451	0.0161790
840.530	0.0160408
840.608	0.0161636
840.686	0.0161579
840.764	0.0160242
840.842	0.0160910
840.920	0.0161816
840.998	0.0162032
841.076	0.0160989
841.155	0.0160483
841.233	0.0162514
841.311	0.0159654
841.389	0.0160690
841.467	0.0161449
841.545	0.0161299
841.623	0.0161757
841.701	0.0160436
841.780	0.0160914
841.858	0.0161004
841.936	0.0160236
842.014	0.0160064
842.092	0.0160326
842.170	0.0160065
842.248	0.0160277
842.326	0.0158244
842.405	0.0159651
842.483	0.0161236
842.561	0.0160030
842.639	0.0158690
842.717	0.0159917
842.795	0.0160594
842.873	0.0159563
842.951	0.0160641
843.030	0.0160681
843.108	0.0160180
843.186	0.0161317
843.264	0.0161962
843.342	0.0160045
843.420	0.0161517
843.498	0.0162881
843.576	0.0161581
843.655	0.0160045
843.733	0.0162605
843.811	0.0161952
843.889	0.0161469
843.967	0.0162119
844.045	0.0161799
844.123	0.0162050
844.201	0.0161555
844.280	0.0161282
844.358	0.0161436
844.436	0.0162039
844.514	0.0161282
844.592	0.0161810
844.670	0.0161634
844.748	0.0162037
844.826	0.0162501
844.905	0.0162500
844.983	0.0162086
845.061	0.0161404
845.139	0.0161922
845.217	0.0161721
845.295	0.0161021
845.373	0.0160527
845.451	0.0161208
845.530	0.0161927
845.608	0.0161784
845.686	0.0160407
845.764	0.0160279
845.842	0.0160828
845.920	0.0160532
845.998	0.0160567
846.076	0.0160389
846.155	0.0159991
846.233	0.0160042
846.311	0.0160284
846.389	0.0160393
846.467	0.0160513
846.545	0.0160369
846.623	0.0160880
846.701	0.0159225
846.780	0.0160262
846.858	0.0161090
846.936	0.0160401
847.014	0.0158829
847.092	0.0160620
847.170	0.0162514
847.248	0.0159227
847.326	0.0158769
847.405	0.0158514
847.483	0.0159814
847.561	0.0159723
847.639	0.0159586
847.717	0.0158796
847.795	0.0158298
847.873	0.0158092
847.951	0.0158842
848.030	0.0158818
848.108	0.0158070
848.186	0.0158295
848.264	0.0158579
848.342	0.0158852
848.420	0.0157652
848.498	0.0157497
848.576	0.0158801
848.655	0.0158272
848.733	0.0157926
848.811	0.0157668
848.889	0.0158896
848.967	0.0156810
849.045	0.0156976
849.123	0.0157309
849.201	0.0155216
849.280	0.0156423
849.358	0.0156973
849.436	0.0156425
849.514	0.0156155
849.592	0.0156332
849.670	0.0157420
849.748	0.0155519
849.826	0.0157279
849.905	0.0157330
849.983	0.0158678
850.061	0.0157608
850.139	0.0157019
850.217	0.0158217
850.295	0.0159168
850.373	0.0159192
850.451	0.0158566
850.530	0.0158365
850.608	0.0159435
850.686	0.0158208
850.764	0.0160119
850.842	0.0160466
850.920	0.0160860
850.998	0.0160271
851.076	0.0159198
851.155	0.0159122
851.233	0.0160293
851.311	0.0158237
851.389	0.0159872
851.467	0.0161489
851.545	0.0160966
851.623	0.0159263
851.701	0.0160061
851.780	0.0159476
851.858	0.0158732
851.936	0.0159924
852.014	0.0159153
852.092	0.0158308
852.170	0.0160969
852.248	0.0160461
852.326	0.0160198
852.405	0.0158350
852.483	0.0160385
852.561	0.0159201
852.639	0.0159013
852.717	0.0159438
852.795	0.0160120
852.873	0.0160194
852.951	0.0158788
853.030	0.0158360
853.108	0.0157249
853.186	0.0158861
853.264	0.0159034
853.342	0.0159998
853.420	0.0160032
853.498	0.0159601
853.576	0.0158355
853.655	0.0159206
853.733	0.0157681
853.811	0.0159035
853.889	0.0158539
853.967	0.0157728
854.045	0.0158893
854.123	0.0157796
854.201	0.0158971
854.280	0.0158911
854.358	0.0158678
854.436	0.0159666
854.514	0.0160242
854.592	0.0159383
854.670	0.0159914
854.748	0.0159630
854.826	0.0160558
854.905	0.0161539
854.983	0.0162629
855.061	0.0162474
855.139	0.0161780
855.217	0.0162424
855.295	0.0161997
855.373	0.0161021
855.451	0.0160959
855.530	0.0163322
855.608	0.0162395
855.686	0.0162029
855.764	0.0162171
855.842	0.0160946
855.920	0.0161446
855.998	0.0161646
856.076	0.0161443
856.155	0.0161710
856.233	0.0162088
856.311	0.0160526
856.389	0.0160968
856.467	0.0159845
856.545	0.0160127
856.623	0.0160692
856.701	0.0159784
856.780	0.0160014
856.858	0.0160622
856.936	0.0160268
857.014	0.0161673
857.092	0.0159751
857.170	0.0159753
857.248	0.0160049
857.326	0.0159995
857.405	0.0160468
857.483	0.0160619
857.561	0.0159502
857.639	0.0161031
857.717	0.0161261
857.795	0.0160850
857.873	0.0159584
857.951	0.0160102
858.030	0.0159914
858.108	0.0159485
858.186	0.0160252
858.264	0.0160500
858.342	0.0160094
858.420	0.0160824
858.498	0.0158574
858.576	0.0160213
858.655	0.0159611
858.733	0.0158298
858.811	0.0159164
858.889	0.0159123
858.967	0.0160031
859.045	0.0161118
859.123	0.0161614
859.201	0.0160052
859.280	0.0160720
859.358	0.0160624
859.436	0.0161324
859.514	0.0161897
859.592	0.0161891
859.670	0.0162741
859.748	0.0161065
859.826	0.0160207
859.905	0.0161822
859.983	0.0162257
860.061	0.0162575
860.139	0.0162321
860.217	0.0162559
860.295	0.0163329
860.373	0.0163055
860.451	0.0161525
860.530	0.0161568
860.608	0.0161456
860.686	0.0161562
860.764	0.0161691
860.842	0.0161662
860.920	0.0160499
860.998	0.0160239
861.076	0.0159351
861.155	0.0159805
861.233	0.0159700
861.311	0.0160179
861.389	0.0158762
861.467	0.0160800
861.545	0.0160285
861.623	0.0159760
861.701	0.0160673
861.780	0.0162057
861.858	0.0161239
861.936	0.0161182
862.014	0.0160915
862.092	0.0160830
862.170	0.0162188
862.248	0.0161624
862.326	0.0159771
862.405	0.0160285
862.483	0.0160202
862.561	0.0159513
862.639	0.0160097
862.717	0.0159429
862.795	0.0159003
862.873	0.0159359
862.951	0.0158693
863.030	0.0159882
863.108	0.0159749
863.186	0.0159890
863.264	0.0159311
863.342	0.0158802
863.420	0.0160188
863.498	0.0161579
863.576	0.0160748
863.655	0.0160171
863.733	0.0161013
863.811	0.0161707
863.889	0.0159772
863.967	0.0159798
864.045	0.0161245
864.123	0.0161459
864.201	0.0161584
864.280	0.0160602
864.358	0.0160167
864.436	0.0161481
864.514	0.0160233
864.592	0.0159144
864.670	0.0158799
864.748	0.0159651
864.826	0.0159906
864.905	0.0159431
864.983	0.0158945
865.061	0.0158366
865.139	0.0158200
865.217	0.0158437
865.295	0.0158298
865.373	0.0158601
865.451	0.0160159
865.530	0.0158717
865.608	0.0159209
865.686	0.0160738
865.764	0.0160417
865.842	0.0160103
865.920	0.0159454
865.998	0.0160056
866.076	0.0160197
866.155	0.0161302
866.233	0.0159055
866.311	0.0161092
866.389	0.0160030
866.467	0.0160355
866.545	0.0160812
866.623	0.0161124
866.701	0.0158417
866.780	0.0160046
866.858	0.0161408
866.936	0.0160554
867.014	0.0160165
867.092	0.0160376
867.170	0.0161363
867.248	0.0161098
867.326	0.0159989
867.405	0.0158636
867.483	0.0160462
867.561	0.0159168
867.639	0.0159526
867.717	0.0161589
867.795	0.0160258
867.873	0.0159882
867.951	0.0158938
868.030	0.0160338
868.108	0.0159998
868.186	0.0159972
868.264	0.0159421
868.342	0.0158440
868.420	0.0160125
868.498	0.0157761
868.576	0.0159737
868.655	0.0159656
868.733	0.0158705
868.811	0.0157958
868.889	0.0157742
868.967	0.0158218
869.045	0.0158384
869.123	0.0157446
869.201	0.0157783
869.280	0.0156516
869.358	0.0157972
869.436	0.0156957
869.514	0.0157260
869.592	0.0159638
869.670	0.0158228
869.748	0.0157760
869.826	0.0157655
869.905	0.0157996
869.983	0.0158696
870.061	0.0158215
870.139	0.0158055
870.217	0.0158833
870.295	0.0158088
870.373	0.0159254
870.451	0.0159282
870.530	0.0159872
870.608	0.0160082
870.686	0.0160421
870.764	0.0159743
870.842	0.0158960
870.920	0.0159018
870.998	0.0156999
871.076	0.0160127
871.155	0.0160563
871.233	0.0159901
871.311	0.0158466
871.389	0.0157722
871.467	0.0159988
871.545	0.0160754
871.623	0.0158630
871.701	0.0158791
871.780	0.0159091
871.858	0.0159315
871.936	0.0159805
872.014	0.0159146
872.092	0.0161083
872.170	0.0161259
872.248	0.0160303
872.326	0.0160938
872.405	0.0159579
872.483	0.0161221
872.561	0.0161481
872.639	0.0161156
872.717	0.0160838
872.795	0.0160936
872.873	0.0160027
872.951	0.0160598
873.030	0.0160303
873.108	0.0160294
873.186	0.0160721
873.264	0.0159620
873.342	0.0159293
873.420	0.0159597
873.498	0.0158146
873.576	0.0159291
873.655	0.0159686
873.733	0.0159969
873.811	0.0158279
873.889	0.0159486
873.967	0.0159511
874.045	0.0159092
874.123	0.0160632
874.201	0.0160629
874.280	0.0160796
874.358	0.0159606
874.436	0.0160787
874.514	0.0159795
874.592	0.0160216
874.670	0.0161721
874.748	0.0161443
874.826	0.0160101
874.905	0.0161435
874.983	0.0161731
875.061	0.0159739
875.139	0.0161385
875.217	0.0162260
875.295	0.0162476
875.373	0.0161762
875.451	0.0161034
875.530	0.0162411
875.608	0.0163692
875.686	0.0161729
875.764	0.0163140
875.842	0.0162814
875.920	0.0161729
875.998	0.0161409
876.076	0.0162238
876.155	0.0163083
876.233	0.0160043
876.311	0.0160249
876.389	0.0161527
876.467	0.0160817
876.545	0.0162443
876.623	0.0162889
876.701	0.0161138
876.780	0.0160665
876.858	0.0160239
876.936	0.0160301
877.014	0.0161306
877.092	0.0160487
877.170	0.0161012
877.248	0.0160484
877.326	0.0161572
877.405	0.0161874
877.483	0.0162142
877.561	0.0161433
877.639	0.0161744
877.717	0.0161259
877.795	0.0163318
877.873	0.0161954
877.951	0.0161874
878.030	0.0159762
878.108	0.0161516
878.186	0.0162782
878.264	0.0161160
878.342	0.0162870
878.420	0.0161066
878.498	0.0160013
878.576	0.0159250
878.655	0.0158521
878.733	0.0159808
878.811	0.0160470
878.889	0.0159778
878.967	0.0159218
879.045	0.0158949
879.123	0.0159192
879.201	0.0157827
879.280	0.0157433
879.358	0.0158702
879.436	0.0157436
879.514	0.0157226
879.592	0.0157849
879.670	0.0156645
879.748	0.0157108
879.826	0.0158418
879.905	0.0156799
879.983	0.0157770
880.061	0.0156544
880.139	0.0157494
880.217	0.0158564
880.295	0.0158627
880.373	0.0159592
880.451	0.0158864
880.530	0.0159598
880.608	0.0160396
880.686	0.0160112
880.764	0.0161781
880.842	0.0160598
880.920	0.0160389
880.998	0.0160269
881.076	0.0162041
881.155	0.0161366
881.233	0.0160304
881.311	0.0160768
881.389	0.0161304
881.467	0.0161371
881.545	0.0160666
881.623	0.0160612
881.701	0.0162050
881.780	0.0160507
881.858	0.0159769
881.936	0.0160880
882.014	0.0160356
882.092	0.0159832
882.170	0.0161552
882.248	0.0161608
882.326	0.0161309
882.405	0.0161412
882.483	0.0160430
882.561	0.0162629
882.639	0.0162129
882.717	0.0162258
882.795	0.0162766
882.873	0.0162901
882.951	0.0161700
883.030	0.0161488
883.108	0.0161715
883.186	0.0162471
883.264	0.0163599
883.342	0.0163563
883.420	0.0162929
883.498	0.0163154
883.576	0.0162856
883.655	0.0161459
883.733	0.0162904
883.811	0.0162242
883.889	0.0163195
883.967	0.0163480
884.045	0.0161777
884.123	0.0161701
884.201	0.0161810
884.280	0.0163435
884.358	0.0161193
884.436	0.0162354
884.514	0.0163168
884.592	0.0163113
884.670	0.0160695
884.748	0.0162064
884.826	0.0162589
884.905	0.0161234
884.983	0.0161611
885.061	0.0161011
885.139	0.0159671
885.217	0.0160590
885.295	0.0161513
885.373	0.0160703
885.451	0.0160966
885.530	0.0162427
885.608	0.0160909
885.686	0.0159950
885.764	0.0160141
885.842	0.0159539
885.920	0.0159462
885.998	0.0160294
886.076	0.0158056
886.155	0.0160728
886.233	0.0159461
886.311	0.0158894
886.389	0.0158978
886.467	0.0160800
886.545	0.0160836
886.623	0.0160026
886.701	0.0160711
886.780	0.0161411
886.858	0.0158906
886.936	0.0159854
887.014	0.0160334
887.092	0.0159445
887.170	0.0162182
887.248	0.0160773
887.326	0.0161334
887.405	0.0161854
887.483	0.0160786
887.561	0.0160429
887.639	0.0161106
887.717	0.0160825
887.795	0.0161681
887.873	0.0160549
887.951	0.0161265
888.030	0.0161813
888.108	0.0160476
888.186	0.0160393
888.264	0.0160529
888.342	0.0160584
888.420	0.0161135
888.498	0.0159375
888.576	0.0160235
888.655	0.0160094
888.733	0.0160262
888.811	0.0161154
888.889	0.0159869
888.967	0.0161705
889.045	0.0162134
889.123	0.0159933
889.201	0.0161659
889.280	0.0161059
889.358	0.0161553
889.436	0.0161324
889.514	0.0162175
889.592	0.0160905
889.670	0.0160137
889.748	0.0160044
889.826	0.0160145
889.905	0.0162052
889.983	0.0160040
890.061	0.0161489
890.139	0.0160094
890.217	0.0160532
890.295	0.0159737
890.373	0.0159403
890.451	0.0160869
890.530	0.0161320
890.608	0.0159884
890.686	0.0160517
890.764	0.0160976
890.842	0.0160671
890.920	0.0160977
890.998	0.0160646
891.076	0.0160049
891.155	0.0160857
891.233	0.0161522
891.311	0.0161711
891.389	0.0161967
891.467	0.0162128
891.545	0.0161420
891.623	0.0161946
891.701	0.0161794
891.780	0.0162277
891.858	0.0163062
891.936	0.0162485
892.014	0.0162965
892.092	0.0161690
892.170	0.0161736
892.248	0.0162579
892.326	0.0162383
892.405	0.0160611
892.483	0.0161965
892.561	0.0161414
892.639	0.0160771
892.717	0.0160859
892.795	0.0159744
892.873	0.0160316
892.951	0.0160133
893.030	0.0158925
893.108	0.0159568
893.186	0.0159185
893.264	0.0158452
893.342	0.0159935
893.420	0.0159908
893.498	0.0159558
893.576	0.0160444
893.655	0.0160764
893.733	0.0158989
893.811	0.0159898
893.889	0.0159173
893.967	0.0160117
894.045	0.0160860
894.123	0.0161330
894.201	0.0161251
894.280	0.0161060
894.358	0.0162082
894.436	0.0160588
894.514	0.0160830
894.592	0.0161654
894.670	0.0162411
894.748	0.0162774
894.826	0.0161996
894.905	0.0161301
894.983	0.0161458
895.061	0.0160987
895.139	0.0160528
895.217	0.0161526
895.295	0.0162350
895.373	0.0161427
895.451	0.0160715
895.530	0.0160399
895.608	0.0160796
895.686	0.0161465
895.764	0.0161449
895.842	0.0160143
895.920	0.0159486
895.998	0.0159840
896.076	0.0160303
896.155	0.0160856
896.233	0.0158830
896.311	0.0160075
896.389	0.0159456
896.467	0.0160129
896.545	0.0160392
896.623	0.0159164
896.701	0.0160609
896.780	0.0159563
896.858	0.0159354
896.936	0.0158633
897.014	0.0159368
897.092	0.0160060
897.170	0.0158105
897.248	0.0158280
897.326	0.0158910
897.405	0.0158947
897.483	0.0158407
897.561	0.0159032
897.639	0.0159171
897.717	0.0158175
897.795	0.0157709
897.873	0.0159376
897.951	0.0158633
898.030	0.0158145
898.108	0.0159850
898.186	0.0158741
898.264	0.0157375
898.342	0.0158526
898.420	0.0158307
898.498	0.0158438
898.576	0.0158786
898.655	0.0159840
898.733	0.0160569
898.811	0.0159216
898.889	0.0159583
898.967	0.0159108
899.045	0.0160167
899.123	0.0161151
899.201	0.0160790
899.280	0.0158614
899.358	0.0159772
899.436	0.0160210
899.514	0.0160057
899.592	0.0160693
899.670	0.0160518
899.748	0.0159389
899.826	0.0160130
899.905	0.0160251
899.983	0.0160023
900.061	0.0159937
900.139	0.0160564
900.217	0.0160148
900.295	0.0159438
900.373	0.0159295
900.451	0.0160584
900.530	0.0161742
900.608	0.0162356
900.686	0.0160053
900.764	0.0160739
900.842	0.0161225
900.920	0.0162223
900.998	0.0161799
901.076	0.0161810
901.155	0.0161250
901.233	0.0161534
901.311	0.0161574
901.389	0.0161370
901.467	0.0159884
901.545	0.0161038
901.623	0.0161326
901.701	0.0161922
901.780	0.0161217
901.858	0.0160612
901.936	0.0159798
902.014	0.0161561
902.092	0.0162714
902.170	0.0161557
902.248	0.0161653
902.326	0.0161132
902.405	0.0160834
902.483	0.0161423
902.561	0.0160500
902.639	0.0161201
902.717	0.0161057
902.795	0.0160738
902.873	0.0160357
902.951	0.0159610
903.030	0.0159431
903.108	0.0161407
903.186	0.0159594
903.264	0.0159177
903.342	0.0160590
903.420	0.0159414
903.498	0.0159364
903.576	0.0160550
903.655	0.0159722
903.733	0.0159868
903.811	0.0159383
903.889	0.0159589
903.967	0.0160582
904.045	0.0160950
904.123	0.0160529
904.201	0.0160918
904.280	0.0160466
904.358	0.0160892
904.436	0.0160104
904.514	0.0160798
904.592	0.0158929
904.670	0.0160741
904.748	0.0160846
904.826	0.0160983
904.905	0.0160217
904.983	0.0161864
905.061	0.0163124
905.139	0.0160798
905.217	0.0160915
905.295	0.0161919
905.373	0.0161458
905.451	0.0162252
905.530	0.0161739
905.608	0.0162840
905.686	0.0162473
905.764	0.0161380
905.842	0.0162585
905.920	0.0160882
905.998	0.0161867
906.076	0.0163448
906.155	0.0161944
906.233	0.0161950
906.311	0.0160640
906.389	0.0160229
906.467	0.0161175
906.545	0.0161863
906.623	0.0161093
906.701	0.0160477
906.780	0.0160205
906.858	0.0160702
906.936	0.0160417
907.014	0.0161230
907.092	0.0161407
907.170	0.0161641
907.248	0.0159845
907.326	0.0159947
907.405	0.0160081
907.483	0.0160629
907.561	0.0161819
907.639	0.0160984
907.717	0.0160662
907.795	0.0160603
907.873	0.0159562
907.951	0.0160405
908.030	0.0160687
908.108	0.0161349
908.186	0.0159316
908.264	0.0159373
908.342	0.0160618
908.420	0.0159771
908.498	0.0159988
908.576	0.0159618
908.655	0.0159970
908.733	0.0158501
908.811	0.0158728
908.889	0.0159317
908.967	0.0158499
909.045	0.0158727
909.123	0.0158649
909.201	0.0158899
909.280	0.0158336
909.358	0.0157944
909.436	0.0157541
909.514	0.0158276
909.592	0.0158308
909.670	0.0158665
909.748	0.0159114
909.826	0.0160602
909.905	0.0158327
909.983	0.0158633
910.061	0.0159593
910.139	0.0158466
910.217	0.0158165
910.295	0.0158421
910.373	0.0159399
910.451	0.0158379
910.530	0.0160516
910.608	0.0159200
910.686	0.0158889
910.764	0.0161166
910.842	0.0160274
910.920	0.0159252
910.998	0.0160596
911.076	0.0159798
911.155	0.0159974
911.233	0.0159862
911.311	0.0161705
911.389	0.0160439
911.467	0.0160896
911.545	0.0161668
911.623	0.0159761
911.701	0.0159601
911.780	0.0159885
911.858	0.0160268
911.936	0.0159802
912.014	0.0160809
912.092	0.0160675
912.170	0.0158228
912.248	0.0159793
912.326	0.0160582
912.405	0.0159724
912.483	0.0159857
912.561	0.0159545
912.639	0.0159620
912.717	0.0159669
912.795	0.0158907
912.873	0.0159249
912.951	0.0160995
913.030	0.0160498
913.108	0.0159251
913.186	0.0161737
913.264	0.0160531
913.342	0.0159972
913.420	0.0158260
913.498	0.0159829
913.576	0.0160526
913.655	0.0159743
913.733	0.0158568
913.811	0.0157568
913.889	0.0157867
913.967	0.0158929
914.045	0.0160344
914.123	0.0159444
914.201	0.0158034
914.280	0.0157442
914.358	0.0158356
914.436	0.0157310
914.514	0.0157678
914.592	0.0158234
914.670	0.0157555
914.748	0.0157713
914.826	0.0158050
914.905	0.0157298
914.983	0.0157195
915.061	0.0157898
915.139	0.0158738
915.217	0.0158486
915.295	0.0157054
915.373	0.0158186
915.451	0.0158997
915.530	0.0156893
915.608	0.0157752
915.686	0.0157589
915.764	0.0158769
915.842	0.0158450
915.920	0.0159499
915.998	0.0160000
916.076	0.0158897
916.155	0.0159775
916.233	0.0159852
916.311	0.0158932
916.389	0.0160065
916.467	0.0160294
916.545	0.0160935
916.623	0.0160621
916.701	0.0161734
916.780	0.0161446
916.858	0.0162007
916.936	0.0162350
917.014	0.0162923
917.092	0.0162482
917.170	0.0161350
917.248	0.0160231
917.326	0.0162733
917.405	0.0161488
917.483	0.0161250
917.561	0.0162261
917.639	0.0161424
917.717	0.0162075
917.795	0.0160249
917.873	0.0161624
917.951	0.0163334
918.030	0.0161516
918.108	0.0161632
918.186	0.0162307
918.264	0.0161972
918.342	0.0162874
918.420	0.0163185
918.498	0.0162614
918.576	0.0161616
918.655	0.0160816
918.733	0.0162143
918.811	0.0163340
918.889	0.0161441
918.967	0.0162599
919.045	0.0162035
919.123	0.0161878
919.201	0.0161190
919.280	0.0160593
919.358	0.0161933
919.436	0.0162280
919.514	0.0160668
919.592	0.0162151
919.670	0.0162592
919.748	0.0163431
919.826	0.0162623
919.905	0.0162860
919.983	0.0161794
920.061	0.0161269
920.139	0.0162885
920.217	0.0162057
920.295	0.0163301
920.373	0.0162402
920.451	0.0161601
920.530	0.0162283
920.608	0.0161932
920.686	0.0161491
920.764	0.0162154
920.842	0.0162078
920.920	0.0161572
920.998	0.0160355
921.076	0.0159760
921.155	0.0159409
921.233	0.0159438
921.311	0.0159610
921.389	0.0158717
921.467	0.0159222
921.545	0.0159721
921.623	0.0159001
921.701	0.0158570
921.780	0.0158797
921.858	0.0158954
921.936	0.0159007
922.014	0.0160187
922.092	0.0158729
922.170	0.0158765
922.248	0.0158762
922.326	0.0159730
922.405	0.0159343
922.483	0.0159975
922.561	0.0159462
922.639	0.0158663
922.717	0.0159772
922.795	0.0157939
922.873	0.0158751
922.951	0.0157883
923.030	0.0157383
923.108	0.0157771
923.186	0.0158292
923.264	0.0158128
923.342	0.0157270
923.420	0.0157497
923.498	0.0158930
923.576	0.0158284
923.655	0.0158963
923.733	0.0156978
923.811	0.0158486
923.889	0.0157948
923.967	0.0157371
924.045	0.0158244
924.123	0.0158262
924.201	0.0158460
924.280	0.0158863
924.358	0.0159142
924.436	0.0158411
924.514	0.0158566
924.592	0.0158312
924.670	0.0157923
924.748	0.0158177
924.826	0.0157418
924.905	0.0158263
924.983	0.0158835
925.061	0.0158004
925.139	0.0157971
925.217	0.0157411
925.295	0.0157870
925.373	0.0157930
925.451	0.0158904
925.530	0.0157681
925.608	0.0157256
925.686	0.0157507
925.764	0.0157424
925.842	0.0158543
925.920	0.0158932
925.998	0.0157146
926.076	0.0156679
926.155	0.0157954
926.233	0.0157364
926.311	0.0157171
926.389	0.0157792
926.467	0.0158107
926.545	0.0157210
926.623	0.0157756
926.701	0.0156997
926.780	0.0156809
926.858	0.0158740
926.936	0.0155962
927.014	0.0157721
927.092	0.0157850
927.170	0.0156994
927.248	0.0157032
927.326	0.0156728
927.405	0.0156889
927.483	0.0157333
927.561	0.0158916
927.639	0.0157437
927.717	0.0156856
927.795	0.0158237
927.873	0.0158756
927.951	0.0158670
928.030	0.0157899
928.108	0.0158704
928.186	0.0158739
928.264	0.0157371
928.342	0.0158580
928.420	0.0158753
928.498	0.0159268
928.576	0.0159473
928.655	0.0158893
928.733	0.0159008
928.811	0.0158679
928.889	0.0159187
928.967	0.0157365
929.045	0.0157669
929.123	0.0158615
929.201	0.0158659
929.280	0.0159489
929.358	0.0159709
929.436	0.0159049
929.514	0.0159143
929.592	0.0158080
929.670	0.0158775
929.748	0.0159186
929.826	0.0160235
929.905	0.0158984
929.983	0.0159389
930.061	0.0159112
930.139	0.0160034
930.217	0.0159809
930.295	0.0160378
930.373	0.0159410
930.451	0.0159843
930.530	0.0159042
930.608	0.0159245
930.686	0.0160495
930.764	0.0159701
930.842	0.0158477
930.920	0.0159585
930.998	0.0159523
931.076	0.0159758
931.155	0.0159192
931.233	0.0159164
931.311	0.0159018
931.389	0.0158157
931.467	0.0159446
931.545	0.0157652
931.623	0.0157968
931.701	0.0159260
931.780	0.0159115
931.858	0.0157743
931.936	0.0157757
932.014	0.0157088
932.092	0.0156370
932.170	0.0156885
932.248	0.0157806
932.326	0.0158358
932.405	0.0157539
932.483	0.0156552
932.561	0.0156956
932.639	0.0157181
932.717	0.0156245
932.795	0.0155925
932.873	0.0155863
932.951	0.0156170
933.030	0.0157264
933.108	0.0156948
933.186	0.0156884
933.264	0.0158755
933.342	0.0158663
933.420	0.0160133
933.498	0.0158157
933.576	0.0158394
933.655	0.0159521
933.733	0.0157755
933.811	0.0158683
933.889	0.0159754
933.967	0.0160155
934.045	0.0160360
934.123	0.0161728
934.201	0.0160494
934.280	0.0160595
934.358	0.0159753
934.436	0.0161077
934.514	0.0161374
934.592	0.0160752
934.670	0.0160342
934.748	0.0161764
934.826	0.0162550
934.905	0.0160898
934.983	0.0161729
935.061	0.0161634
935.139	0.0162702
935.217	0.0162614
935.295	0.0162619
935.373	0.0163406
935.451	0.0162476
935.530	0.0162602
935.608	0.0162063
935.686	0.0163802
935.764	0.0163705
935.842	0.0162286
935.920	0.0161436
935.998	0.0163268
936.076	0.0161875
936.155	0.0162827
936.233	0.0163231
936.311	0.0162592
936.389	0.0163602
936.467	0.0162214
936.545	0.0162250
936.623	0.0162555
936.701	0.0162752
936.780	0.0161748
936.858	0.0162609
936.936	0.0161597
937.014	0.0162747
937.092	0.0161489
937.170	0.0163239
937.248	0.0162543
937.326	0.0161749
937.405	0.0162593
937.483	0.0161879
937.561	0.0162012
937.639	0.0163030
937.717	0.0161481
937.795	0.0161774
937.873	0.0163004
937.951	0.0162235
938.030	0.0163071
938.108	0.0162686
938.186	0.0160580
938.264	0.0161907
938.342	0.0165190
938.420	0.0163456
938.498	0.0162022
938.576	0.0162251
938.655	0.0162460
938.733	0.0162260
938.811	0.0162563
938.889	0.0160509
938.967	0.0160970
939.045	0.0160622
939.123	0.0161437
939.201	0.0159633
939.280	0.0160889
939.358	0.0160114
939.436	0.0160715
939.514	0.0159675
939.592	0.0159373
939.670	0.0159115
939.748	0.0158876
939.826	0.0159349
939.905	0.0159147
939.983	0.0159196
940.061	0.0159598
940.139	0.0158848
940.217	0.0158951
940.295	0.0158016
940.373	0.0157244
940.451	0.0157597
940.530	0.0158109
940.608	0.0157441
940.686	0.0158276
940.764	0.0158044
940.842	0.0159575
940.920	0.0158695
940.998	0.0158497
941.076	0.0159162
941.155	0.0159841
941.233	0.0160223
941.311	0.0159054
941.389	0.0160204
941.467	0.0160770
941.545	0.0159045
941.623	0.0160280
941.701	0.0160101
941.780	0.0159816
941.858	0.0161053
941.936	0.0160339
942.014	0.0158918
942.092	0.0160633
942.170	0.0160450
942.248	0.0160640
942.326	0.0159715
942.405	0.0160523
942.483	0.0159770
942.561	0.0159882
942.639	0.0160475
942.717	0.0160012
942.795	0.0160473
942.873	0.0158968
942.951	0.0159787
943.030	0.0158719
943.108	0.0159361
943.186	0.0160140
943.264	0.0159475
943.342	0.0159379
943.420	0.0159389
943.498	0.0160806
943.576	0.0159457
943.655	0.0160455
943.733	0.0159982
943.811	0.0159908
943.889	0.0159895
943.967	0.0160457
944.045	0.0161009
944.123	0.0161446
944.201	0.0160587
944.280	0.0160380
944.358	0.0161752
944.436	0.0159853
944.514	0.0160888
944.592	0.0162022
944.670	0.0160075
944.748	0.0159406
944.826	0.0159486
944.905	0.0159285
944.983	0.0158700
945.061	0.0159154
945.139	0.0159470
945.217	0.0159622
945.295	0.0159255
945.373	0.0159595
945.451	0.0160307
945.530	0.0158929
945.608	0.0159173
945.686	0.0159724
945.764	0.0159266
945.842	0.0159814
945.920	0.0159804
945.998	0.0160957
946.076	0.0161015
946.155	0.0160117
946.233	0.0159879
946.311	0.0159888
946.389	0.0159659
946.467	0.0160546
946.545	0.0160905
946.623	0.0158978
946.701	0.0159301
946.780	0.0157564
946.858	0.0159206
946.936	0.0159215
947.014	0.0159294
947.092	0.0159037
947.170	0.0158218
947.248	0.0158716
947.326	0.0159070
947.405	0.0158270
947.483	0.0158404
947.561	0.0159389
947.639	0.0159238
947.717	0.0157142
947.795	0.0159068
947.873	0.0159784
947.951	0.0158964
948.030	0.0159885
948.108	0.0160571
948.186	0.0161226
948.264	0.0161543
948.342	0.0160331
948.420	0.0159782
948.498	0.0160735
948.576	0.0161519
948.655	0.0162038
948.733	0.0160439
948.811	0.0162623
948.889	0.0161396
948.967	0.0161913
949.045	0.0162386
949.123	0.0161179
949.201	0.0160609
949.280	0.0162183
949.358	0.0163505
949.436	0.0162960
949.514	0.0162693
949.592	0.0162318
949.670	0.0162993
949.748	0.0162635
949.826	0.0162443
949.905	0.0162463
949.983	0.0161954
950.061	0.0161021
950.139	0.0162013
950.217	0.0162939
950.295	0.0160669
950.373	0.0161766
950.451	0.0161321
950.530	0.0159850
950.608	0.0159867
950.686	0.0161327
950.764	0.0158534
950.842	0.0159260
950.920	0.0159551
950.998	0.0158623
951.076	0.0159020
951.155	0.0158552
951.233	0.0158106
951.311	0.0159907
951.389	0.0159327
951.467	0.0157934
951.545	0.0157387
951.623	0.0157981
951.701	0.0157901
951.780	0.0158467
951.858	0.0156661
951.936	0.0157518
952.014	0.0158706
952.092	0.0158215
952.170	0.0158286
952.248	0.0157371
952.326	0.0159039
952.405	0.0158675
952.483	0.0157582
952.561	0.0157542
952.639	0.0158396
952.717	0.0158044
952.795	0.0158874
952.873	0.0157542
952.951	0.0157170
953.030	0.0157990
953.108	0.0157411
953.186	0.0157698
953.264	0.0158092
953.342	0.0158974
953.420	0.0158121
953.498	0.0157673
953.576	0.0159225
953.655	0.0158893
953.733	0.0158703
953.811	0.0159000
953.889	0.0158560
953.967	0.0158300
954.045	0.0157707
954.123	0.0157838
954.201	0.0160825
954.280	0.0157684
954.358	0.0159286
954.436	0.0159634
954.514	0.0159585
954.592	0.0158095
954.670	0.0157542
954.748	0.0159140
954.826	0.0159538
954.905	0.0160131
954.983	0.0160038
955.061	0.0161569
955.139	0.0161443
955.217	0.0160361
955.295	0.0161671
955.373	0.0161315
955.451	0.0161424
955.530	0.0160941
955.608	0.0162273
955.686	0.0162037
955.764	0.0161156
955.842	0.0163087
955.920	0.0163851
955.998	0.0162494
956.076	0.0163387
956.155	0.0163049
956.233	0.0162392
956.311	0.0160503
956.389	0.0162506
956.467	0.0162161
956.545	0.0163821
956.623	0.0162723
956.701	0.0163345
956.780	0.0162337
956.858	0.0162436
956.936	0.0162253
957.014	0.0162921
957.092	0.0165332
957.170	0.0162729
957.248	0.0160487
957.326	0.0162498
957.405	0.0162190
957.483	0.0163890
957.561	0.0162280
957.639	0.0161545
957.717	0.0161806
957.795	0.0162646
957.873	0.0160376
957.951	0.0161211
958.030	0.0160880
958.108	0.0161462
958.186	0.0162524
958.264	0.0161002
958.342	0.0158179
958.420	0.0160969
958.498	0.0161523
958.576	0.0161433
958.655	0.0160265
958.733	0.0160283
958.811	0.0160473
958.889	0.0161261
958.967	0.0161569
959.045	0.0161394
959.123	0.0161400
959.201	0.0161470
959.280	0.0161134
959.358	0.0159933
959.436	0.0161989
959.514	0.0162781
959.592	0.0161221
959.670	0.0162248
959.748	0.0162260
959.826	0.0162911
959.905	0.0162696
