05/17/2022	17:03:24	Ver.	4.1	UNKNOWN
Optical Delay	639.982744	Delta X		0.078125	Sweeps	1	Scan Rate	0/0
Coordinates	Axis 1	NaN	Axis 2	NaN	Axis 3	NaN	Axis 4	NaN	Axis 5	NaN	Axis 6	0.000000
TX Power	0.000000	RX Power	0.000000

639.983	0.0162189
640.061	0.0161428
640.139	0.0160078
640.217	0.0161684
640.295	0.0161142
640.373	0.0161897
640.451	0.0161598
640.530	0.0160789
640.608	0.0160751
640.686	0.0161955
640.764	0.0160874
640.842	0.0161162
640.920	0.0161575
640.998	0.0161604
641.076	0.0160939
641.155	0.0161511
641.233	0.0160735
641.311	0.0159367
641.389	0.0159908
641.467	0.0160240
641.545	0.0159796
641.623	0.0160037
641.701	0.0160909
641.780	0.0160598
641.858	0.0160197
641.936	0.0160075
642.014	0.0160576
642.092	0.0160485
642.170	0.0160125
642.248	0.0160453
642.326	0.0160255
642.405	0.0159946
642.483	0.0160476
642.561	0.0159642
642.639	0.0160167
642.717	0.0161529
642.795	0.0161034
642.873	0.0161041
642.951	0.0160427
643.030	0.0160772
643.108	0.0160652
643.186	0.0160074
643.264	0.0160793
643.342	0.0159389
643.420	0.0160146
643.498	0.0158433
643.576	0.0158984
643.655	0.0160003
643.733	0.0159167
643.811	0.0159039
643.889	0.0158604
643.967	0.0159071
644.045	0.0159454
644.123	0.0158536
644.201	0.0158870
644.280	0.0159229
644.358	0.0160201
644.436	0.0157747
644.514	0.0158070
644.592	0.0159293
644.670	0.0159864
644.748	0.0159063
644.826	0.0158268
644.905	0.0159983
644.983	0.0159348
645.061	0.0159223
645.139	0.0158875
645.217	0.0158283
645.295	0.0158150
645.373	0.0159340
645.451	0.0158984
645.530	0.0159123
645.608	0.0158676
645.686	0.0158338
645.764	0.0156907
645.842	0.0157726
645.920	0.0159203
645.998	0.0158886
646.076	0.0157926
646.155	0.0158231
646.233	0.0157921
646.311	0.0159260
646.389	0.0158269
646.467	0.0158290
646.545	0.0159067
646.623	0.0159241
646.701	0.0158942
646.780	0.0157867
646.858	0.0158195
646.936	0.0159344
647.014	0.0160262
647.092	0.0158546
647.170	0.0158822
647.248	0.0159370
647.326	0.0159232
647.405	0.0159214
647.483	0.0159339
647.561	0.0158565
647.639	0.0158003
647.717	0.0158372
647.795	0.0158720
647.873	0.0159791
647.951	0.0157996
648.030	0.0159778
648.108	0.0157576
648.186	0.0158764
648.264	0.0160001
648.342	0.0161488
648.420	0.0159093
648.498	0.0160158
648.576	0.0160125
648.655	0.0158440
648.733	0.0159035
648.811	0.0161037
648.889	0.0159090
648.967	0.0160647
649.045	0.0158787
649.123	0.0159357
649.201	0.0159151
649.280	0.0158847
649.358	0.0160360
649.436	0.0159103
649.514	0.0158772
649.592	0.0157915
649.670	0.0158498
649.748	0.0159715
649.826	0.0159037
649.905	0.0158147
649.983	0.0158331
650.061	0.0159473
650.139	0.0160206
650.217	0.0158257
650.295	0.0160368
650.373	0.0159200
650.451	0.0159682
650.530	0.0159888
650.608	0.0157760
650.686	0.0157040
650.764	0.0160502
650.842	0.0159330
650.920	0.0159087
650.998	0.0159456
651.076	0.0159052
651.155	0.0157784
651.233	0.0156318
651.311	0.0158178
651.389	0.0156483
651.467	0.0157777
651.545	0.0159126
651.623	0.0157110
651.701	0.0157623
651.780	0.0157911
651.858	0.0158054
651.936	0.0157114
652.014	0.0158219
652.092	0.0157622
652.170	0.0157858
652.248	0.0158096
652.326	0.0157724
652.405	0.0156752
652.483	0.0157777
652.561	0.0158012
652.639	0.0156750
652.717	0.0158817
652.795	0.0158124
652.873	0.0156705
652.951	0.0157600
653.030	0.0156654
653.108	0.0155949
653.186	0.0156624
653.264	0.0157294
653.342	0.0157995
653.420	0.0157088
653.498	0.0157206
653.576	0.0158027
653.655	0.0158379
653.733	0.0157062
653.811	0.0158811
653.889	0.0159396
653.967	0.0157956
654.045	0.0158953
654.123	0.0159389
654.201	0.0158315
654.280	0.0158836
654.358	0.0157471
654.436	0.0157812
654.514	0.0157352
654.592	0.0157053
654.670	0.0158955
654.748	0.0159164
654.826	0.0156492
654.905	0.0157575
654.983	0.0157338
655.061	0.0158286
655.139	0.0157137
655.217	0.0158192
655.295	0.0157037
655.373	0.0156775
655.451	0.0157925
655.530	0.0157993
655.608	0.0158451
655.686	0.0157807
655.764	0.0158267
655.842	0.0157922
655.920	0.0157852
655.998	0.0158643
656.076	0.0157702
656.155	0.0159103
656.233	0.0159685
656.311	0.0158400
656.389	0.0160574
656.467	0.0158577
656.545	0.0159327
656.623	0.0158834
656.701	0.0158486
656.780	0.0159598
656.858	0.0158591
656.936	0.0159248
657.014	0.0159457
657.092	0.0160242
657.170	0.0158643
657.248	0.0161132
657.326	0.0161507
657.405	0.0160494
657.483	0.0159741
657.561	0.0160961
657.639	0.0160692
657.717	0.0159531
657.795	0.0159592
657.873	0.0162434
657.951	0.0160955
658.030	0.0160400
658.108	0.0160860
658.186	0.0161101
658.264	0.0161163
658.342	0.0161453
658.420	0.0160210
658.498	0.0160998
658.576	0.0161901
658.655	0.0160211
658.733	0.0161437
658.811	0.0160698
658.889	0.0162082
658.967	0.0160886
659.045	0.0160276
659.123	0.0160394
659.201	0.0160267
659.280	0.0161491
659.358	0.0160798
659.436	0.0160668
659.514	0.0162012
659.592	0.0162770
659.670	0.0160088
659.748	0.0160960
659.826	0.0161250
659.905	0.0161988
659.983	0.0161622
660.061	0.0160780
660.139	0.0160917
660.217	0.0160126
660.295	0.0162471
660.373	0.0162141
660.451	0.0161106
660.530	0.0160531
660.608	0.0161063
660.686	0.0161446
660.764	0.0161462
660.842	0.0159809
660.920	0.0160144
660.998	0.0160646
661.076	0.0160125
661.155	0.0159479
661.233	0.0160035
661.311	0.0161134
661.389	0.0162923
661.467	0.0159525
661.545	0.0161038
661.623	0.0163297
661.701	0.0162955
661.780	0.0162024
661.858	0.0163872
661.936	0.0163078
662.014	0.0161725
662.092	0.0163683
662.170	0.0162489
662.248	0.0161442
662.326	0.0161523
662.405	0.0162511
662.483	0.0161626
662.561	0.0163171
662.639	0.0160947
662.717	0.0160686
662.795	0.0160458
662.873	0.0160377
662.951	0.0160232
663.030	0.0159169
663.108	0.0160417
663.186	0.0159798
663.264	0.0158359
663.342	0.0158558
663.420	0.0157894
663.498	0.0156553
663.576	0.0157126
663.655	0.0158254
663.733	0.0157323
663.811	0.0158009
663.889	0.0157790
663.967	0.0157317
664.045	0.0157925
664.123	0.0159382
664.201	0.0158144
664.280	0.0158514
664.358	0.0159215
664.436	0.0161224
664.514	0.0160860
664.592	0.0161407
664.670	0.0162376
664.748	0.0161317
664.826	0.0162542
664.905	0.0163850
664.983	0.0164436
665.061	0.0163903
665.139	0.0164143
665.217	0.0162167
665.295	0.0164668
665.373	0.0165318
665.451	0.0163264
665.530	0.0164262
665.608	0.0165271
665.686	0.0163428
665.764	0.0164529
665.842	0.0163105
665.920	0.0161372
665.998	0.0161646
666.076	0.0161002
666.155	0.0160581
666.233	0.0157831
666.311	0.0157377
666.389	0.0157021
666.467	0.0157016
666.545	0.0156028
666.623	0.0154793
666.701	0.0154143
666.780	0.0153044
666.858	0.0154150
666.936	0.0153881
667.014	0.0154694
667.092	0.0153234
667.170	0.0154075
667.248	0.0154731
667.326	0.0154790
667.405	0.0156634
667.483	0.0157418
667.561	0.0159435
667.639	0.0160714
667.717	0.0160236
667.795	0.0161464
667.873	0.0163547
667.951	0.0164446
668.030	0.0164309
668.108	0.0165096
668.186	0.0166697
668.264	0.0167298
668.342	0.0167876
668.420	0.0167505
668.498	0.0168433
668.576	0.0169293
668.655	0.0168137
668.733	0.0165630
668.811	0.0165776
668.889	0.0165916
668.967	0.0164553
669.045	0.0162909
669.123	0.0162809
669.201	0.0160777
669.280	0.0160189
669.358	0.0159386
669.436	0.0158328
669.514	0.0156045
669.592	0.0155103
669.670	0.0154177
669.748	0.0154611
669.826	0.0153197
669.905	0.0151932
669.983	0.0151986
670.061	0.0152122
670.139	0.0149438
670.217	0.0150439
670.295	0.0151642
670.373	0.0151125
670.451	0.0151605
670.530	0.0153349
670.608	0.0152937
670.686	0.0154288
670.764	0.0155597
670.842	0.0156619
670.920	0.0157251
670.998	0.0157600
671.076	0.0158650
671.155	0.0160184
671.233	0.0161950
671.311	0.0161101
671.389	0.0163791
671.467	0.0163527
671.545	0.0163909
671.623	0.0164992
671.701	0.0167471
671.780	0.0166691
671.858	0.0167365
671.936	0.0167698
672.014	0.0165267
672.092	0.0164753
672.170	0.0165415
672.248	0.0166293
672.326	0.0164826
672.405	0.0164321
672.483	0.0162997
672.561	0.0162415
672.639	0.0161517
672.717	0.0160114
672.795	0.0160296
672.873	0.0157765
672.951	0.0157164
673.030	0.0155820
673.108	0.0155259
673.186	0.0154046
673.264	0.0152742
673.342	0.0152599
673.420	0.0152071
673.498	0.0150799
673.576	0.0151104
673.655	0.0150858
673.733	0.0149642
673.811	0.0148183
673.889	0.0149654
673.967	0.0150822
674.045	0.0150220
674.123	0.0150756
674.201	0.0151288
674.280	0.0152211
674.358	0.0153008
674.436	0.0153919
674.514	0.0154793
674.592	0.0155150
674.670	0.0156249
674.748	0.0156504
674.826	0.0157395
674.905	0.0158068
674.983	0.0159322
675.061	0.0159483
675.139	0.0160222
675.217	0.0162249
675.295	0.0161814
675.373	0.0162161
675.451	0.0163101
675.530	0.0163397
675.608	0.0163610
675.686	0.0164120
675.764	0.0163811
675.842	0.0163097
675.920	0.0164734
675.998	0.0162708
676.076	0.0163652
676.155	0.0163363
676.233	0.0161855
676.311	0.0160321
676.389	0.0160381
676.467	0.0159305
676.545	0.0158772
676.623	0.0158364
676.701	0.0156004
676.780	0.0153996
676.858	0.0155859
676.936	0.0154688
677.014	0.0154018
677.092	0.0153826
677.170	0.0153606
677.248	0.0153266
677.326	0.0153162
677.405	0.0151345
677.483	0.0152732
677.561	0.0152288
677.639	0.0152301
677.717	0.0152876
677.795	0.0154252
677.873	0.0154026
677.951	0.0153226
678.030	0.0154244
678.108	0.0155523
678.186	0.0155082
678.264	0.0156236
678.342	0.0157259
678.420	0.0157567
678.498	0.0158860
678.576	0.0158964
678.655	0.0160257
678.733	0.0159764
678.811	0.0159949
678.889	0.0160495
678.967	0.0161673
679.045	0.0162290
679.123	0.0163694
679.201	0.0162174
679.280	0.0162944
679.358	0.0163813
679.436	0.0165781
679.514	0.0166563
679.592	0.0167402
679.670	0.0169107
679.748	0.0169497
679.826	0.0171993
679.905	0.0172197
679.983	0.0171508
680.061	0.0170873
680.139	0.0171617
680.217	0.0172504
680.295	0.0171824
680.373	0.0171916
680.451	0.0170793
680.530	0.0169598
680.608	0.0169489
680.686	0.0167078
680.764	0.0165926
680.842	0.0164476
680.920	0.0161447
680.998	0.0159782
681.076	0.0159039
681.155	0.0157565
681.233	0.0156026
681.311	0.0153644
681.389	0.0153107
681.467	0.0150710
681.545	0.0149260
681.623	0.0148768
681.701	0.0148203
681.780	0.0148496
681.858	0.0148240
681.936	0.0148051
682.014	0.0149332
682.092	0.0150686
682.170	0.0152332
682.248	0.0152821
682.326	0.0155465
682.405	0.0159034
682.483	0.0159082
682.561	0.0161710
682.639	0.0166004
682.717	0.0168356
682.795	0.0170213
682.873	0.0171194
682.951	0.0170418
683.030	0.0174009
683.108	0.0175408
683.186	0.0176131
683.264	0.0174540
683.342	0.0174525
683.420	0.0174159
683.498	0.0174805
683.576	0.0173116
683.655	0.0170882
683.733	0.0171213
683.811	0.0168355
683.889	0.0166175
683.967	0.0166360
684.045	0.0164696
684.123	0.0162611
684.201	0.0159510
684.280	0.0158509
684.358	0.0157426
684.436	0.0155122
684.514	0.0153941
684.592	0.0152097
684.670	0.0150665
684.748	0.0149272
684.826	0.0148227
684.905	0.0146856
684.983	0.0147076
685.061	0.0146777
685.139	0.0147726
685.217	0.0150507
685.295	0.0149775
685.373	0.0150820
685.451	0.0151418
685.530	0.0153034
685.608	0.0153963
685.686	0.0154005
685.764	0.0157948
685.842	0.0159131
685.920	0.0159754
685.998	0.0161234
686.076	0.0162018
686.155	0.0162423
686.233	0.0162922
686.311	0.0165137
686.389	0.0164273
686.467	0.0164658
686.545	0.0163865
686.623	0.0163402
686.701	0.0163304
686.780	0.0162612
686.858	0.0161483
686.936	0.0161333
687.014	0.0160809
687.092	0.0157146
687.170	0.0158790
687.248	0.0157889
687.326	0.0157574
687.405	0.0156924
687.483	0.0155434
687.561	0.0155572
687.639	0.0156432
687.717	0.0155724
687.795	0.0156087
687.873	0.0157569
687.951	0.0156378
688.030	0.0157826
688.108	0.0158907
688.186	0.0160415
688.264	0.0159898
688.342	0.0159714
688.420	0.0162589
688.498	0.0164973
688.576	0.0164910
688.655	0.0165864
688.733	0.0164616
688.811	0.0166339
688.889	0.0166155
688.967	0.0164728
689.045	0.0164115
689.123	0.0163680
689.201	0.0163293
689.280	0.0164211
689.358	0.0163393
689.436	0.0162415
689.514	0.0162409
689.592	0.0161351
689.670	0.0160995
689.748	0.0160741
689.826	0.0160113
689.905	0.0162324
689.983	0.0160471
690.061	0.0160582
690.139	0.0160646
690.217	0.0159486
690.295	0.0160786
690.373	0.0161376
690.451	0.0159027
690.530	0.0158867
690.608	0.0161320
690.686	0.0162152
690.764	0.0159451
690.842	0.0160722
690.920	0.0159107
690.998	0.0158115
691.076	0.0157681
691.155	0.0157850
691.233	0.0156941
691.311	0.0156696
691.389	0.0155245
691.467	0.0154147
691.545	0.0153543
691.623	0.0153126
691.701	0.0153179
691.780	0.0150406
691.858	0.0150389
691.936	0.0150560
692.014	0.0148602
692.092	0.0150380
692.170	0.0149827
692.248	0.0150673
692.326	0.0150657
692.405	0.0150938
692.483	0.0150613
692.561	0.0153876
692.639	0.0155703
692.717	0.0158716
692.795	0.0160074
692.873	0.0160880
692.951	0.0162415
693.030	0.0164257
693.108	0.0167429
693.186	0.0167743
693.264	0.0168812
693.342	0.0171193
693.420	0.0171828
693.498	0.0173170
693.576	0.0172762
693.655	0.0173971
693.733	0.0174525
693.811	0.0174749
693.889	0.0175088
693.967	0.0175303
694.045	0.0175903
694.123	0.0176601
694.201	0.0174857
694.280	0.0173022
694.358	0.0173806
694.436	0.0172219
694.514	0.0172149
694.592	0.0171039
694.670	0.0170096
694.748	0.0169018
694.826	0.0167269
694.905	0.0165137
694.983	0.0165312
695.061	0.0163724
695.139	0.0161856
695.217	0.0160468
695.295	0.0158396
695.373	0.0157517
695.451	0.0155985
695.530	0.0154501
695.608	0.0154485
695.686	0.0153146
695.764	0.0153069
695.842	0.0151682
695.920	0.0151440
695.998	0.0152666
696.076	0.0152580
696.155	0.0153118
696.233	0.0154051
696.311	0.0153642
696.389	0.0153734
696.467	0.0155315
696.545	0.0157032
696.623	0.0156850
696.701	0.0158120
696.780	0.0156439
696.858	0.0157960
696.936	0.0158258
697.014	0.0158479
697.092	0.0159158
697.170	0.0159136
697.248	0.0160251
697.326	0.0159553
697.405	0.0158126
697.483	0.0158279
697.561	0.0158034
697.639	0.0157426
697.717	0.0155984
697.795	0.0155452
697.873	0.0154546
697.951	0.0154384
698.030	0.0154132
698.108	0.0153217
698.186	0.0152615
698.264	0.0151126
698.342	0.0154381
698.420	0.0154114
698.498	0.0153841
698.576	0.0154378
698.655	0.0155154
698.733	0.0155764
698.811	0.0157410
698.889	0.0158795
698.967	0.0161386
699.045	0.0163134
699.123	0.0163377
699.201	0.0165895
699.280	0.0168038
699.358	0.0169347
699.436	0.0171829
699.514	0.0172189
699.592	0.0172000
699.670	0.0174540
699.748	0.0175617
699.826	0.0174306
699.905	0.0176028
699.983	0.0176003
700.061	0.0175930
700.139	0.0174992
700.217	0.0175292
700.295	0.0173982
700.373	0.0174185
700.451	0.0175262
700.530	0.0173215
700.608	0.0171143
700.686	0.0172019
700.764	0.0169643
700.842	0.0169002
700.920	0.0167345
700.998	0.0166050
701.076	0.0165181
701.155	0.0163360
701.233	0.0161736
701.311	0.0161902
701.389	0.0160303
701.467	0.0157813
701.545	0.0157843
701.623	0.0156505
701.701	0.0154998
701.780	0.0153430
701.858	0.0151833
701.936	0.0152406
702.014	0.0151836
702.092	0.0152170
702.170	0.0148943
702.248	0.0150198
702.326	0.0150761
702.405	0.0147855
702.483	0.0149054
702.561	0.0148995
702.639	0.0151175
702.717	0.0149381
702.795	0.0149118
702.873	0.0148874
702.951	0.0149677
703.030	0.0150764
703.108	0.0151707
703.186	0.0151661
703.264	0.0153579
703.342	0.0152641
703.420	0.0153721
703.498	0.0155215
703.576	0.0156268
703.655	0.0156284
703.733	0.0158186
703.811	0.0158372
703.889	0.0158625
703.967	0.0160152
704.045	0.0159410
704.123	0.0160656
704.201	0.0161806
704.280	0.0159628
704.358	0.0159545
704.436	0.0159660
704.514	0.0160104
704.592	0.0160423
704.670	0.0160676
704.748	0.0159692
704.826	0.0162012
704.905	0.0162489
704.983	0.0161790
705.061	0.0162878
705.139	0.0161866
705.217	0.0162201
705.295	0.0163774
705.373	0.0163907
705.451	0.0164672
705.530	0.0164240
705.608	0.0164980
705.686	0.0165750
705.764	0.0164957
705.842	0.0166814
705.920	0.0165665
705.998	0.0165437
706.076	0.0168329
706.155	0.0166826
706.233	0.0165268
706.311	0.0165645
706.389	0.0166596
706.467	0.0165726
706.545	0.0164917
706.623	0.0162576
706.701	0.0161797
706.780	0.0161415
706.858	0.0161617
706.936	0.0160190
707.014	0.0157824
707.092	0.0157159
707.170	0.0156483
707.248	0.0155018
707.326	0.0154081
707.405	0.0152190
707.483	0.0154053
707.561	0.0151668
707.639	0.0149938
707.717	0.0150744
707.795	0.0151274
707.873	0.0149111
707.951	0.0149926
708.030	0.0150429
708.108	0.0150501
708.186	0.0152997
708.264	0.0152409
708.342	0.0154683
708.420	0.0156246
708.498	0.0156497
708.576	0.0156800
708.655	0.0158627
708.733	0.0158882
708.811	0.0159754
708.889	0.0159784
708.967	0.0161824
709.045	0.0160589
709.123	0.0161539
709.201	0.0162823
709.280	0.0163364
709.358	0.0164030
709.436	0.0165231
709.514	0.0163770
709.592	0.0164464
709.670	0.0162756
709.748	0.0163263
709.826	0.0163866
709.905	0.0163378
709.983	0.0163364
710.061	0.0164075
710.139	0.0163535
710.217	0.0162721
710.295	0.0162244
710.373	0.0162450
710.451	0.0160507
710.530	0.0159762
710.608	0.0159456
710.686	0.0160833
710.764	0.0159935
710.842	0.0159711
710.920	0.0158877
710.998	0.0158324
711.076	0.0159982
711.155	0.0161974
711.233	0.0161719
711.311	0.0162438
711.389	0.0160686
711.467	0.0161222
711.545	0.0160522
711.623	0.0161696
711.701	0.0163120
711.780	0.0162373
711.858	0.0161675
711.936	0.0162646
712.014	0.0162487
712.092	0.0163171
712.170	0.0163150
712.248	0.0164197
712.326	0.0164680
712.405	0.0164181
712.483	0.0163503
712.561	0.0165562
712.639	0.0164814
712.717	0.0164388
712.795	0.0164961
712.873	0.0163699
712.951	0.0163104
713.030	0.0161100
713.108	0.0161690
713.186	0.0163144
713.264	0.0162554
713.342	0.0162086
713.420	0.0162415
713.498	0.0161986
713.576	0.0161229
713.655	0.0158857
713.733	0.0159824
713.811	0.0161375
713.889	0.0160033
713.967	0.0161297
714.045	0.0161093
714.123	0.0159937
714.201	0.0160229
714.280	0.0159704
714.358	0.0160751
714.436	0.0159542
714.514	0.0158883
714.592	0.0157970
714.670	0.0159703
714.748	0.0158463
714.826	0.0157342
714.905	0.0156833
714.983	0.0157764
715.061	0.0157199
715.139	0.0156844
715.217	0.0156705
715.295	0.0158046
715.373	0.0155991
715.451	0.0156601
715.530	0.0156713
715.608	0.0157510
715.686	0.0157609
715.764	0.0155936
715.842	0.0157820
715.920	0.0159032
715.998	0.0159042
716.076	0.0159306
716.155	0.0161107
716.233	0.0162284
716.311	0.0161697
716.389	0.0163832
716.467	0.0163193
716.545	0.0161998
716.623	0.0162693
716.701	0.0163803
716.780	0.0164253
716.858	0.0164021
716.936	0.0164900
717.014	0.0162058
717.092	0.0161797
717.170	0.0161411
717.248	0.0162036
717.326	0.0161771
717.405	0.0159489
717.483	0.0158890
717.561	0.0158559
717.639	0.0157185
717.717	0.0155967
717.795	0.0156664
717.873	0.0154006
717.951	0.0154440
718.030	0.0154800
718.108	0.0154792
718.186	0.0153138
718.264	0.0154117
718.342	0.0155796
718.420	0.0155661
718.498	0.0157992
718.576	0.0157813
718.655	0.0158764
718.733	0.0160172
718.811	0.0160753
718.889	0.0162221
718.967	0.0164040
719.045	0.0162813
719.123	0.0164439
719.201	0.0164220
719.280	0.0164549
719.358	0.0164140
719.436	0.0162843
719.514	0.0164026
719.592	0.0162506
719.670	0.0161227
719.748	0.0161784
719.826	0.0159913
719.905	0.0156690
719.983	0.0157916
720.061	0.0157578
720.139	0.0154883
720.217	0.0154057
720.295	0.0153282
720.373	0.0154547
720.451	0.0155106
720.530	0.0155443
720.608	0.0155686
720.686	0.0156183
720.764	0.0156225
720.842	0.0156837
720.920	0.0157891
720.998	0.0158448
721.076	0.0159541
721.155	0.0163007
721.233	0.0162840
721.311	0.0163742
721.389	0.0163936
721.467	0.0164467
721.545	0.0165154
721.623	0.0164246
721.701	0.0165476
721.780	0.0166177
721.858	0.0165878
721.936	0.0164459
722.014	0.0164224
722.092	0.0164722
722.170	0.0163064
722.248	0.0162664
722.326	0.0161464
722.405	0.0162007
722.483	0.0161565
722.561	0.0163015
722.639	0.0162246
722.717	0.0160081
722.795	0.0161340
722.873	0.0161251
722.951	0.0160781
723.030	0.0160297
723.108	0.0161224
723.186	0.0160175
723.264	0.0160449
723.342	0.0160017
723.420	0.0159576
723.498	0.0160297
723.576	0.0159553
723.655	0.0160483
723.733	0.0161096
723.811	0.0158730
723.889	0.0159676
723.967	0.0160035
724.045	0.0159732
724.123	0.0158806
724.201	0.0158297
724.280	0.0158315
724.358	0.0158697
724.436	0.0157364
724.514	0.0158879
724.592	0.0156616
724.670	0.0156755
724.748	0.0157353
724.826	0.0156838
724.905	0.0156664
724.983	0.0156533
725.061	0.0156452
725.139	0.0156513
725.217	0.0157792
725.295	0.0157027
725.373	0.0158231
725.451	0.0158908
725.530	0.0160645
725.608	0.0159965
725.686	0.0159494
725.764	0.0159100
725.842	0.0160909
725.920	0.0160210
725.998	0.0161154
726.076	0.0158099
726.155	0.0161073
726.233	0.0160187
726.311	0.0159324
726.389	0.0159332
726.467	0.0159750
726.545	0.0160107
726.623	0.0160017
726.701	0.0158738
726.780	0.0159718
726.858	0.0158931
726.936	0.0160427
727.014	0.0160572
727.092	0.0158274
727.170	0.0159514
727.248	0.0158897
727.326	0.0159657
727.405	0.0161204
727.483	0.0160187
727.561	0.0160652
727.639	0.0160762
727.717	0.0162879
727.795	0.0162710
727.873	0.0162486
727.951	0.0161759
728.030	0.0161860
728.108	0.0162299
728.186	0.0161430
728.264	0.0161259
728.342	0.0161926
728.420	0.0160732
728.498	0.0159100
728.576	0.0159193
728.655	0.0157621
728.733	0.0157784
728.811	0.0156579
728.889	0.0157829
728.967	0.0156870
729.045	0.0156029
729.123	0.0156104
729.201	0.0155614
729.280	0.0156107
729.358	0.0156514
729.436	0.0157934
729.514	0.0157314
729.592	0.0157890
729.670	0.0160529
729.748	0.0160714
729.826	0.0160996
729.905	0.0161305
729.983	0.0161939
730.061	0.0163738
730.139	0.0163097
730.217	0.0163286
730.295	0.0164082
730.373	0.0161948
730.451	0.0163114
730.530	0.0162478
730.608	0.0163226
730.686	0.0161723
730.764	0.0161700
730.842	0.0160004
730.920	0.0161481
730.998	0.0160371
731.076	0.0159779
731.155	0.0158662
731.233	0.0158363
731.311	0.0158533
731.389	0.0158235
731.467	0.0158650
731.545	0.0157433
731.623	0.0156790
731.701	0.0156929
731.780	0.0156964
731.858	0.0157589
731.936	0.0156020
732.014	0.0156397
732.092	0.0156500
732.170	0.0155285
732.248	0.0156127
732.326	0.0154610
732.405	0.0154700
732.483	0.0154176
732.561	0.0154619
732.639	0.0154498
732.717	0.0153823
732.795	0.0156029
732.873	0.0155805
732.951	0.0156361
733.030	0.0156460
733.108	0.0155910
733.186	0.0156120
733.264	0.0158067
733.342	0.0158418
733.420	0.0159298
733.498	0.0159432
733.576	0.0160779
733.655	0.0161604
733.733	0.0162778
733.811	0.0162067
733.889	0.0163529
733.967	0.0163051
734.045	0.0163914
734.123	0.0163956
734.201	0.0164612
734.280	0.0165549
734.358	0.0165791
734.436	0.0164145
734.514	0.0164535
734.592	0.0163835
734.670	0.0163102
734.748	0.0163450
734.826	0.0162450
734.905	0.0160900
734.983	0.0162415
735.061	0.0160271
735.139	0.0159240
735.217	0.0159791
735.295	0.0158416
735.373	0.0157034
735.451	0.0157465
735.530	0.0157368
735.608	0.0156716
735.686	0.0156507
735.764	0.0157873
735.842	0.0156084
735.920	0.0155936
735.998	0.0157790
736.076	0.0156819
736.155	0.0159088
736.233	0.0157732
736.311	0.0159468
736.389	0.0161578
736.467	0.0160262
736.545	0.0160085
736.623	0.0162083
736.701	0.0161949
736.780	0.0161625
736.858	0.0160825
736.936	0.0160730
737.014	0.0161199
737.092	0.0161642
737.170	0.0160252
737.248	0.0158394
737.326	0.0160408
737.405	0.0160208
737.483	0.0158431
737.561	0.0158400
737.639	0.0157023
737.717	0.0158730
737.795	0.0157980
737.873	0.0159473
737.951	0.0158101
738.030	0.0159570
738.108	0.0159811
738.186	0.0159211
738.264	0.0160601
738.342	0.0161286
738.420	0.0161728
738.498	0.0161294
738.576	0.0162922
738.655	0.0163804
738.733	0.0163262
738.811	0.0162880
738.889	0.0162965
738.967	0.0162668
739.045	0.0161568
739.123	0.0162450
739.201	0.0161912
739.280	0.0162015
739.358	0.0161929
739.436	0.0160870
739.514	0.0159097
739.592	0.0158287
739.670	0.0159107
739.748	0.0157200
739.826	0.0157015
739.905	0.0156154
739.983	0.0156853
740.061	0.0155743
740.139	0.0156814
740.217	0.0156121
740.295	0.0156913
740.373	0.0157371
740.451	0.0158632
740.530	0.0156456
740.608	0.0157162
740.686	0.0158821
740.764	0.0158847
740.842	0.0158782
740.920	0.0160371
740.998	0.0161197
741.076	0.0162472
741.155	0.0160849
741.233	0.0161978
741.311	0.0161072
741.389	0.0162943
741.467	0.0163255
741.545	0.0160396
741.623	0.0162914
741.701	0.0163235
741.780	0.0162179
741.858	0.0160468
741.936	0.0159489
742.014	0.0158870
742.092	0.0158470
742.170	0.0159676
742.248	0.0158057
742.326	0.0156868
742.405	0.0157286
742.483	0.0156355
742.561	0.0155657
742.639	0.0157368
742.717	0.0155748
742.795	0.0156536
742.873	0.0155597
742.951	0.0157561
743.030	0.0159263
743.108	0.0157689
743.186	0.0158109
743.264	0.0157809
743.342	0.0158945
743.420	0.0157103
743.498	0.0159623
743.576	0.0159164
743.655	0.0159605
743.733	0.0160503
743.811	0.0159603
743.889	0.0159405
743.967	0.0159897
744.045	0.0159415
744.123	0.0159216
744.201	0.0159248
744.280	0.0159377
744.358	0.0159658
744.436	0.0160163
744.514	0.0160432
744.592	0.0160319
744.670	0.0159664
744.748	0.0160628
744.826	0.0160279
744.905	0.0162256
744.983	0.0161182
745.061	0.0161667
745.139	0.0160995
745.217	0.0160542
745.295	0.0162481
745.373	0.0161657
745.451	0.0161167
745.530	0.0161892
745.608	0.0160972
745.686	0.0162444
745.764	0.0162608
745.842	0.0161680
745.920	0.0161589
745.998	0.0161954
746.076	0.0162118
746.155	0.0162400
746.233	0.0163153
746.311	0.0161868
746.389	0.0161166
746.467	0.0161874
746.545	0.0161183
746.623	0.0160587
746.701	0.0159723
746.780	0.0158871
746.858	0.0158511
746.936	0.0158367
747.014	0.0155264
747.092	0.0157121
747.170	0.0155257
747.248	0.0155810
747.326	0.0153622
747.405	0.0152883
747.483	0.0154211
747.561	0.0153624
747.639	0.0154092
747.717	0.0152707
747.795	0.0153158
747.873	0.0154379
747.951	0.0153846
748.030	0.0153773
748.108	0.0155700
748.186	0.0155570
748.264	0.0156824
748.342	0.0157993
748.420	0.0159167
748.498	0.0159035
748.576	0.0158516
748.655	0.0159312
748.733	0.0160490
748.811	0.0161137
748.889	0.0162780
748.967	0.0161692
749.045	0.0161759
749.123	0.0162317
749.201	0.0161578
749.280	0.0159914
749.358	0.0161091
749.436	0.0160638
749.514	0.0159883
749.592	0.0159476
749.670	0.0159819
749.748	0.0159525
749.826	0.0160101
749.905	0.0160622
749.983	0.0158517
750.061	0.0159736
750.139	0.0160235
750.217	0.0158543
750.295	0.0161319
750.373	0.0162460
750.451	0.0161635
750.530	0.0161343
750.608	0.0161603
750.686	0.0163468
750.764	0.0162788
750.842	0.0162097
750.920	0.0162199
750.998	0.0162853
751.076	0.0163393
751.155	0.0161703
751.233	0.0162339
751.311	0.0161750
751.389	0.0162404
751.467	0.0158949
751.545	0.0162012
751.623	0.0160303
751.701	0.0159569
751.780	0.0157980
751.858	0.0157817
751.936	0.0157987
752.014	0.0158965
752.092	0.0158765
752.170	0.0158662
752.248	0.0159340
752.326	0.0159925
752.405	0.0160479
752.483	0.0159995
752.561	0.0161774
752.639	0.0162043
752.717	0.0161325
752.795	0.0160900
752.873	0.0162163
752.951	0.0160831
753.030	0.0161912
753.108	0.0161619
753.186	0.0161250
753.264	0.0159741
753.342	0.0160710
753.420	0.0160574
753.498	0.0160211
753.576	0.0160077
753.655	0.0160644
753.733	0.0160341
753.811	0.0159526
753.889	0.0159990
753.967	0.0159196
754.045	0.0160033
754.123	0.0160715
754.201	0.0160420
754.280	0.0159078
754.358	0.0159679
754.436	0.0161832
754.514	0.0159432
754.592	0.0159695
754.670	0.0160567
754.748	0.0159694
754.826	0.0160336
754.905	0.0159221
754.983	0.0159168
755.061	0.0159396
755.139	0.0157806
755.217	0.0157320
755.295	0.0157619
755.373	0.0157429
755.451	0.0156189
755.530	0.0154949
755.608	0.0154764
755.686	0.0154446
755.764	0.0156625
755.842	0.0157096
755.920	0.0155171
755.998	0.0154842
756.076	0.0156412
756.155	0.0156836
756.233	0.0157008
756.311	0.0157260
756.389	0.0156870
756.467	0.0157163
756.545	0.0158282
756.623	0.0158545
756.701	0.0158737
756.780	0.0158562
756.858	0.0158973
756.936	0.0159822
757.014	0.0158656
757.092	0.0157645
757.170	0.0158295
757.248	0.0157452
757.326	0.0158900
757.405	0.0156758
757.483	0.0158614
757.561	0.0158152
757.639	0.0158794
757.717	0.0159057
757.795	0.0158640
757.873	0.0158899
757.951	0.0158571
758.030	0.0160005
758.108	0.0159621
758.186	0.0159741
758.264	0.0161599
758.342	0.0161048
758.420	0.0162311
758.498	0.0161356
758.576	0.0163312
758.655	0.0162623
758.733	0.0162401
758.811	0.0163892
758.889	0.0163052
758.967	0.0162865
759.045	0.0162770
759.123	0.0161646
759.201	0.0161223
759.280	0.0161337
759.358	0.0162138
759.436	0.0160718
759.514	0.0160871
759.592	0.0159922
759.670	0.0161089
759.748	0.0159550
759.826	0.0159376
759.905	0.0159778
759.983	0.0159402
760.061	0.0159779
760.139	0.0160302
760.217	0.0160401
760.295	0.0160561
760.373	0.0160723
760.451	0.0161539
760.530	0.0161101
760.608	0.0161423
760.686	0.0162123
760.764	0.0160310
760.842	0.0161874
760.920	0.0161055
760.998	0.0160443
761.076	0.0159647
761.155	0.0161414
761.233	0.0160542
761.311	0.0160825
761.389	0.0160654
761.467	0.0160426
761.545	0.0160155
761.623	0.0160342
761.701	0.0161360
761.780	0.0161594
761.858	0.0161557
761.936	0.0160819
762.014	0.0163768
762.092	0.0161974
762.170	0.0162882
762.248	0.0161678
762.326	0.0162482
762.405	0.0162956
762.483	0.0162132
762.561	0.0161524
762.639	0.0161600
762.717	0.0161746
762.795	0.0160276
762.873	0.0160102
762.951	0.0160332
763.030	0.0158244
763.108	0.0157054
763.186	0.0157629
763.264	0.0157767
763.342	0.0157594
763.420	0.0156403
763.498	0.0157014
763.576	0.0157923
763.655	0.0157813
763.733	0.0157000
763.811	0.0158184
763.889	0.0159007
763.967	0.0159761
764.045	0.0160509
764.123	0.0160120
764.201	0.0160320
764.280	0.0161282
764.358	0.0162775
764.436	0.0161845
764.514	0.0160543
764.592	0.0161405
764.670	0.0161675
764.748	0.0160645
764.826	0.0161816
764.905	0.0160773
764.983	0.0161380
765.061	0.0160529
765.139	0.0159951
765.217	0.0160342
765.295	0.0160135
765.373	0.0160455
765.451	0.0158745
765.530	0.0160005
765.608	0.0158640
765.686	0.0159606
765.764	0.0159248
765.842	0.0160391
765.920	0.0158527
765.998	0.0160389
766.076	0.0160861
766.155	0.0158897
766.233	0.0160738
766.311	0.0160207
766.389	0.0158491
766.467	0.0159232
766.545	0.0159476
766.623	0.0160417
766.701	0.0159763
766.780	0.0159682
766.858	0.0159026
766.936	0.0159396
767.014	0.0156975
767.092	0.0158726
767.170	0.0159332
767.248	0.0158497
767.326	0.0158106
767.405	0.0158340
767.483	0.0158446
767.561	0.0159113
767.639	0.0158686
767.717	0.0159201
767.795	0.0159171
767.873	0.0158857
767.951	0.0159098
768.030	0.0160004
768.108	0.0159520
768.186	0.0159229
768.264	0.0160167
768.342	0.0160851
768.420	0.0161863
768.498	0.0162106
768.576	0.0160791
768.655	0.0162027
768.733	0.0162247
768.811	0.0160255
768.889	0.0161622
768.967	0.0163023
769.045	0.0161250
769.123	0.0161359
769.201	0.0161331
769.280	0.0162087
769.358	0.0160607
769.436	0.0162740
769.514	0.0162181
769.592	0.0159966
769.670	0.0160478
769.748	0.0161191
769.826	0.0160180
769.905	0.0160742
769.983	0.0160396
770.061	0.0159359
770.139	0.0158932
770.217	0.0159443
770.295	0.0159100
770.373	0.0159743
770.451	0.0157811
770.530	0.0158727
770.608	0.0157758
770.686	0.0157776
770.764	0.0158929
770.842	0.0158772
770.920	0.0158196
770.998	0.0158694
771.076	0.0158529
771.155	0.0159113
771.233	0.0159821
771.311	0.0159998
771.389	0.0160945
771.467	0.0159195
771.545	0.0158173
771.623	0.0161227
771.701	0.0160197
771.780	0.0159621
771.858	0.0161977
771.936	0.0160667
772.014	0.0160153
772.092	0.0160950
772.170	0.0159829
772.248	0.0160082
772.326	0.0160901
772.405	0.0160554
772.483	0.0160924
772.561	0.0160346
772.639	0.0161606
772.717	0.0160567
772.795	0.0159768
772.873	0.0160746
772.951	0.0160332
773.030	0.0160174
773.108	0.0160229
773.186	0.0161037
773.264	0.0160307
773.342	0.0159562
773.420	0.0159933
773.498	0.0160062
773.576	0.0160770
773.655	0.0161037
773.733	0.0159756
773.811	0.0159662
773.889	0.0161416
773.967	0.0160652
774.045	0.0160236
774.123	0.0161316
774.201	0.0162193
774.280	0.0163124
774.358	0.0161362
774.436	0.0162832
774.514	0.0162655
774.592	0.0161346
774.670	0.0163026
774.748	0.0161699
774.826	0.0162020
774.905	0.0160963
774.983	0.0160399
775.061	0.0160370
775.139	0.0159849
775.217	0.0159423
775.295	0.0159569
775.373	0.0158963
775.451	0.0158063
775.530	0.0157923
775.608	0.0158525
775.686	0.0156256
775.764	0.0156556
775.842	0.0157564
775.920	0.0157517
775.998	0.0159400
776.076	0.0157367
776.155	0.0156554
776.233	0.0158302
776.311	0.0157197
776.389	0.0157894
776.467	0.0159117
776.545	0.0159726
776.623	0.0160133
776.701	0.0158826
776.780	0.0160179
776.858	0.0160494
776.936	0.0161120
777.014	0.0161227
777.092	0.0161470
777.170	0.0162316
777.248	0.0160010
777.326	0.0159606
777.405	0.0157607
777.483	0.0159977
777.561	0.0157519
777.639	0.0157872
777.717	0.0158116
777.795	0.0158035
777.873	0.0156790
777.951	0.0157333
778.030	0.0157333
778.108	0.0157155
778.186	0.0157902
778.264	0.0157699
778.342	0.0157162
778.420	0.0158321
778.498	0.0157936
778.576	0.0159531
778.655	0.0159422
778.733	0.0159167
778.811	0.0158035
778.889	0.0159707
778.967	0.0159296
779.045	0.0160522
779.123	0.0160605
779.201	0.0160686
779.280	0.0160439
779.358	0.0160262
779.436	0.0161441
779.514	0.0161705
779.592	0.0162037
779.670	0.0160371
779.748	0.0159806
779.826	0.0161256
779.905	0.0159769
779.983	0.0158341
780.061	0.0159595
780.139	0.0160171
780.217	0.0159370
780.295	0.0158035
780.373	0.0158324
780.451	0.0159708
780.530	0.0158205
780.608	0.0159088
780.686	0.0159410
780.764	0.0159551
780.842	0.0159962
780.920	0.0159676
780.998	0.0160395
781.076	0.0159711
781.155	0.0158434
781.233	0.0159678
781.311	0.0158928
781.389	0.0159224
781.467	0.0158833
781.545	0.0159187
781.623	0.0158546
781.701	0.0157880
781.780	0.0158139
781.858	0.0159042
781.936	0.0157945
782.014	0.0157432
782.092	0.0158912
782.170	0.0158292
782.248	0.0158366
782.326	0.0159823
782.405	0.0160237
782.483	0.0160376
782.561	0.0160549
782.639	0.0161586
782.717	0.0162367
782.795	0.0162316
782.873	0.0161732
782.951	0.0159338
783.030	0.0161329
783.108	0.0163346
783.186	0.0162708
783.264	0.0163021
783.342	0.0161894
783.420	0.0161791
783.498	0.0163316
783.576	0.0162331
783.655	0.0161965
783.733	0.0161061
783.811	0.0160484
783.889	0.0160741
783.967	0.0162408
784.045	0.0162993
784.123	0.0161192
784.201	0.0163351
784.280	0.0161534
784.358	0.0161471
784.436	0.0162810
784.514	0.0161572
784.592	0.0161580
784.670	0.0160691
784.748	0.0161617
784.826	0.0161204
784.905	0.0162247
784.983	0.0162178
785.061	0.0161301
785.139	0.0161050
785.217	0.0161494
785.295	0.0160152
785.373	0.0161231
785.451	0.0162071
785.530	0.0158987
785.608	0.0159425
785.686	0.0159717
785.764	0.0157883
785.842	0.0158510
785.920	0.0157600
785.998	0.0158451
786.076	0.0158691
786.155	0.0158494
786.233	0.0157922
786.311	0.0158237
786.389	0.0157784
786.467	0.0158801
786.545	0.0159766
786.623	0.0159402
786.701	0.0159595
786.780	0.0158501
786.858	0.0158910
786.936	0.0158960
787.014	0.0158337
787.092	0.0157065
787.170	0.0156749
787.248	0.0157503
787.326	0.0158202
787.405	0.0157771
787.483	0.0158713
787.561	0.0158941
787.639	0.0158508
787.717	0.0158368
787.795	0.0158492
787.873	0.0157426
787.951	0.0159473
788.030	0.0159003
788.108	0.0159011
788.186	0.0157624
788.264	0.0158854
788.342	0.0158568
788.420	0.0159538
788.498	0.0158142
788.576	0.0159029
788.655	0.0158855
788.733	0.0158381
788.811	0.0159371
788.889	0.0159499
788.967	0.0158607
789.045	0.0159494
789.123	0.0160323
789.201	0.0160360
789.280	0.0160603
789.358	0.0160640
789.436	0.0160860
789.514	0.0159443
789.592	0.0160428
789.670	0.0161687
789.748	0.0161700
789.826	0.0161187
789.905	0.0160868
789.983	0.0161446
790.061	0.0161795
790.139	0.0162292
790.217	0.0161719
790.295	0.0162183
790.373	0.0162830
790.451	0.0163297
790.530	0.0162421
790.608	0.0163016
790.686	0.0163130
790.764	0.0163222
790.842	0.0162556
790.920	0.0163365
790.998	0.0163753
791.076	0.0163776
791.155	0.0163039
791.233	0.0163101
791.311	0.0162148
791.389	0.0164587
791.467	0.0162759
791.545	0.0163660
791.623	0.0163863
791.701	0.0163260
791.780	0.0163982
791.858	0.0162996
791.936	0.0163694
792.014	0.0163213
792.092	0.0163674
792.170	0.0162484
792.248	0.0160510
792.326	0.0162560
792.405	0.0161428
792.483	0.0160889
792.561	0.0160583
792.639	0.0159866
792.717	0.0162164
792.795	0.0159711
792.873	0.0158788
792.951	0.0159702
793.030	0.0159833
793.108	0.0159518
793.186	0.0158030
793.264	0.0157882
793.342	0.0159237
793.420	0.0160072
793.498	0.0159746
793.576	0.0158675
793.655	0.0158115
793.733	0.0159166
793.811	0.0158676
793.889	0.0158137
793.967	0.0157983
794.045	0.0158797
794.123	0.0158924
794.201	0.0159660
794.280	0.0160520
794.358	0.0160583
794.436	0.0159559
794.514	0.0158997
794.592	0.0158509
794.670	0.0158041
794.748	0.0160261
794.826	0.0158736
794.905	0.0159972
794.983	0.0160778
795.061	0.0160499
795.139	0.0159566
795.217	0.0161100
795.295	0.0160545
795.373	0.0160150
795.451	0.0160423
795.530	0.0161758
795.608	0.0162008
795.686	0.0162885
795.764	0.0162175
795.842	0.0161933
795.920	0.0162753
795.998	0.0162295
796.076	0.0162830
796.155	0.0161916
796.233	0.0162263
796.311	0.0162377
796.389	0.0162712
796.467	0.0162727
796.545	0.0162221
796.623	0.0162913
796.701	0.0161440
796.780	0.0161471
796.858	0.0160300
796.936	0.0161865
797.014	0.0161680
797.092	0.0161059
797.170	0.0160912
797.248	0.0160538
797.326	0.0158825
797.405	0.0161086
797.483	0.0159702
797.561	0.0159401
797.639	0.0159977
797.717	0.0159449
797.795	0.0158787
797.873	0.0159154
797.951	0.0157817
798.030	0.0158976
798.108	0.0157861
798.186	0.0155978
798.264	0.0155997
798.342	0.0158116
798.420	0.0156345
798.498	0.0156306
798.576	0.0157613
798.655	0.0155748
798.733	0.0154981
798.811	0.0156178
798.889	0.0154807
798.967	0.0154893
799.045	0.0154958
799.123	0.0154875
799.201	0.0156281
799.280	0.0156264
799.358	0.0157751
799.436	0.0157618
799.514	0.0157192
799.592	0.0155772
799.670	0.0157980
799.748	0.0159081
799.826	0.0159420
799.905	0.0157881
799.983	0.0158822
800.061	0.0159634
800.139	0.0159946
800.217	0.0158366
800.295	0.0159460
800.373	0.0159824
800.451	0.0159994
800.530	0.0159317
800.608	0.0159132
800.686	0.0160160
800.764	0.0159937
800.842	0.0160699
800.920	0.0158887
800.998	0.0159358
801.076	0.0160674
801.155	0.0160966
801.233	0.0161006
801.311	0.0161844
801.389	0.0159853
801.467	0.0161109
801.545	0.0160735
801.623	0.0160448
801.701	0.0161230
801.780	0.0161375
801.858	0.0160975
801.936	0.0160963
802.014	0.0161671
802.092	0.0161972
802.170	0.0163008
802.248	0.0161237
802.326	0.0162906
802.405	0.0162364
802.483	0.0162408
802.561	0.0162641
802.639	0.0162012
802.717	0.0162169
802.795	0.0162589
802.873	0.0164243
802.951	0.0163200
803.030	0.0161690
803.108	0.0162967
803.186	0.0161962
803.264	0.0162690
803.342	0.0162638
803.420	0.0163544
803.498	0.0162503
803.576	0.0161865
803.655	0.0161205
803.733	0.0162363
803.811	0.0161986
803.889	0.0160828
803.967	0.0159866
804.045	0.0160513
804.123	0.0160632
804.201	0.0159196
804.280	0.0159751
804.358	0.0158733
804.436	0.0158543
804.514	0.0159136
804.592	0.0157581
804.670	0.0157994
804.748	0.0157583
804.826	0.0157682
804.905	0.0157836
804.983	0.0158564
805.061	0.0156944
805.139	0.0157661
805.217	0.0159993
805.295	0.0158554
805.373	0.0157721
805.451	0.0159196
805.530	0.0159731
805.608	0.0159857
805.686	0.0160228
805.764	0.0160688
805.842	0.0160881
805.920	0.0160130
805.998	0.0161376
806.076	0.0161694
806.155	0.0160477
806.233	0.0161765
806.311	0.0161350
806.389	0.0162525
806.467	0.0161211
806.545	0.0160467
806.623	0.0160770
806.701	0.0161145
806.780	0.0160287
806.858	0.0160136
806.936	0.0160395
807.014	0.0160461
807.092	0.0160858
807.170	0.0160148
807.248	0.0160737
807.326	0.0161501
807.405	0.0161578
807.483	0.0162901
807.561	0.0163777
807.639	0.0162197
807.717	0.0163087
807.795	0.0163792
807.873	0.0162614
807.951	0.0163205
808.030	0.0163335
808.108	0.0162432
808.186	0.0162730
808.264	0.0161082
808.342	0.0159631
808.420	0.0160902
808.498	0.0159367
808.576	0.0159192
808.655	0.0159462
808.733	0.0159521
808.811	0.0158435
808.889	0.0158086
808.967	0.0157520
809.045	0.0157416
809.123	0.0156855
809.201	0.0157770
809.280	0.0157505
809.358	0.0158298
809.436	0.0156672
809.514	0.0157041
809.592	0.0156414
809.670	0.0157343
809.748	0.0157168
809.826	0.0156762
809.905	0.0157671
809.983	0.0155629
810.061	0.0156442
810.139	0.0157456
810.217	0.0156435
810.295	0.0157113
810.373	0.0156983
810.451	0.0157211
810.530	0.0157086
810.608	0.0157673
810.686	0.0157833
810.764	0.0157588
810.842	0.0158105
810.920	0.0158857
810.998	0.0158652
811.076	0.0158773
811.155	0.0159103
811.233	0.0158952
811.311	0.0160451
811.389	0.0160570
811.467	0.0160284
811.545	0.0160857
811.623	0.0160835
811.701	0.0162015
811.780	0.0162615
811.858	0.0161449
811.936	0.0163108
812.014	0.0162238
812.092	0.0162115
812.170	0.0163418
812.248	0.0161205
812.326	0.0161913
812.405	0.0162735
812.483	0.0162591
812.561	0.0161303
812.639	0.0163193
812.717	0.0162013
812.795	0.0162115
812.873	0.0161158
812.951	0.0160868
813.030	0.0161946
813.108	0.0160905
813.186	0.0160122
813.264	0.0160519
813.342	0.0160179
813.420	0.0160137
813.498	0.0161538
813.576	0.0160598
813.655	0.0160635
813.733	0.0159689
813.811	0.0160569
813.889	0.0160829
813.967	0.0161249
814.045	0.0160294
814.123	0.0161466
814.201	0.0159795
814.280	0.0159992
814.358	0.0159207
814.436	0.0159650
814.514	0.0158750
814.592	0.0159838
814.670	0.0158375
814.748	0.0160183
814.826	0.0159987
814.905	0.0157790
814.983	0.0159343
815.061	0.0159536
815.139	0.0158664
815.217	0.0161039
815.295	0.0159637
815.373	0.0160416
815.451	0.0159435
815.530	0.0160532
815.608	0.0161684
815.686	0.0162743
815.764	0.0163333
815.842	0.0161724
815.920	0.0162590
815.998	0.0162623
816.076	0.0162759
816.155	0.0163223
816.233	0.0164113
816.311	0.0163657
816.389	0.0162678
816.467	0.0160855
816.545	0.0161839
816.623	0.0161213
816.701	0.0160677
816.780	0.0161748
816.858	0.0160870
816.936	0.0159946
817.014	0.0159586
817.092	0.0159496
817.170	0.0160894
817.248	0.0159618
817.326	0.0159800
817.405	0.0159020
817.483	0.0160818
817.561	0.0159328
817.639	0.0160065
817.717	0.0160720
817.795	0.0160048
817.873	0.0160510
817.951	0.0160967
818.030	0.0160886
818.108	0.0160719
818.186	0.0161309
818.264	0.0160932
818.342	0.0158939
818.420	0.0159360
818.498	0.0159277
818.576	0.0159435
818.655	0.0159016
818.733	0.0158433
818.811	0.0158116
818.889	0.0157055
818.967	0.0157597
819.045	0.0158009
819.123	0.0157653
819.201	0.0156765
819.280	0.0159423
819.358	0.0158360
819.436	0.0158858
819.514	0.0158379
819.592	0.0158598
819.670	0.0158570
819.748	0.0159268
819.826	0.0158799
819.905	0.0157246
819.983	0.0158038
820.061	0.0160046
820.139	0.0160184
820.217	0.0159869
820.295	0.0159436
820.373	0.0159936
820.451	0.0158703
820.530	0.0157598
820.608	0.0157817
820.686	0.0158492
820.764	0.0157337
820.842	0.0157388
820.920	0.0156523
820.998	0.0158180
821.076	0.0158242
821.155	0.0157397
821.233	0.0158636
821.311	0.0157796
821.389	0.0157787
821.467	0.0158260
821.545	0.0157343
821.623	0.0157757
821.701	0.0157881
821.780	0.0157776
821.858	0.0157851
821.936	0.0157818
822.014	0.0157162
822.092	0.0158216
822.170	0.0157646
822.248	0.0157875
822.326	0.0159013
822.405	0.0158172
822.483	0.0158429
822.561	0.0158306
822.639	0.0157657
822.717	0.0158755
822.795	0.0159457
822.873	0.0158631
822.951	0.0158381
823.030	0.0157388
823.108	0.0157536
823.186	0.0158730
823.264	0.0157759
823.342	0.0158784
823.420	0.0158271
823.498	0.0159483
823.576	0.0158498
823.655	0.0158699
823.733	0.0160007
823.811	0.0160566
823.889	0.0159982
823.967	0.0160735
824.045	0.0161317
824.123	0.0161085
824.201	0.0159640
824.280	0.0161945
824.358	0.0162467
824.436	0.0160561
824.514	0.0161412
824.592	0.0160960
824.670	0.0163046
824.748	0.0160595
824.826	0.0159726
824.905	0.0160206
824.983	0.0159895
825.061	0.0159273
825.139	0.0160283
825.217	0.0159756
825.295	0.0158737
825.373	0.0159377
825.451	0.0161216
825.530	0.0159851
825.608	0.0160073
825.686	0.0160128
825.764	0.0160479
825.842	0.0161314
825.920	0.0160175
825.998	0.0160675
826.076	0.0160849
826.155	0.0161755
826.233	0.0161408
826.311	0.0161861
826.389	0.0162376
826.467	0.0160302
826.545	0.0161600
826.623	0.0161696
826.701	0.0161212
826.780	0.0160110
826.858	0.0161372
826.936	0.0160251
827.014	0.0161707
827.092	0.0161901
827.170	0.0160115
827.248	0.0161427
827.326	0.0162085
827.405	0.0162186
827.483	0.0162042
827.561	0.0161435
827.639	0.0162845
827.717	0.0163888
827.795	0.0163065
827.873	0.0161543
827.951	0.0162354
828.030	0.0162271
828.108	0.0161422
828.186	0.0161640
828.264	0.0162925
828.342	0.0161971
828.420	0.0161919
828.498	0.0160752
828.576	0.0160559
828.655	0.0160745
828.733	0.0158768
828.811	0.0159492
828.889	0.0159156
828.967	0.0159225
829.045	0.0159348
829.123	0.0157932
829.201	0.0157572
829.280	0.0157187
829.358	0.0158060
829.436	0.0157829
829.514	0.0158310
829.592	0.0157250
829.670	0.0156261
829.748	0.0155972
829.826	0.0156664
829.905	0.0155757
829.983	0.0157800
830.061	0.0157721
830.139	0.0158408
830.217	0.0157458
830.295	0.0158190
830.373	0.0158204
830.451	0.0159646
830.530	0.0160271
830.608	0.0157990
830.686	0.0159450
830.764	0.0160316
830.842	0.0162511
830.920	0.0160359
830.998	0.0159810
831.076	0.0160096
831.155	0.0160725
831.233	0.0160962
831.311	0.0161629
831.389	0.0162204
831.467	0.0161929
831.545	0.0162260
831.623	0.0161956
831.701	0.0161202
831.780	0.0160815
831.858	0.0161725
831.936	0.0162622
832.014	0.0163528
832.092	0.0162968
832.170	0.0163293
832.248	0.0162884
832.326	0.0163147
832.405	0.0164122
832.483	0.0163786
832.561	0.0163931
832.639	0.0163109
832.717	0.0164128
832.795	0.0163412
832.873	0.0161767
832.951	0.0162518
833.030	0.0162885
833.108	0.0162368
833.186	0.0162589
833.264	0.0161952
833.342	0.0160503
833.420	0.0162282
833.498	0.0162083
833.576	0.0162076
833.655	0.0160460
833.733	0.0160529
833.811	0.0159925
833.889	0.0159709
833.967	0.0158969
834.045	0.0159355
834.123	0.0159469
834.201	0.0159298
834.280	0.0157381
834.358	0.0157255
834.436	0.0158415
834.514	0.0158546
834.592	0.0158308
834.670	0.0158984
834.748	0.0159698
834.826	0.0157821
834.905	0.0158560
834.983	0.0158409
835.061	0.0157087
835.139	0.0158794
835.217	0.0159944
835.295	0.0158791
835.373	0.0159137
835.451	0.0160390
835.530	0.0161681
835.608	0.0161063
835.686	0.0159790
835.764	0.0160682
835.842	0.0161893
835.920	0.0161707
835.998	0.0161120
836.076	0.0161954
836.155	0.0162222
836.233	0.0162552
836.311	0.0162231
836.389	0.0161391
836.467	0.0163731
836.545	0.0162530
836.623	0.0161214
836.701	0.0161317
836.780	0.0162371
836.858	0.0161293
836.936	0.0161747
837.014	0.0162036
837.092	0.0160448
837.170	0.0161060
837.248	0.0160655
837.326	0.0161678
837.405	0.0160041
837.483	0.0160531
837.561	0.0161446
837.639	0.0161121
837.717	0.0160339
837.795	0.0160976
837.873	0.0163212
837.951	0.0161530
838.030	0.0162523
838.108	0.0161716
838.186	0.0161453
838.264	0.0162060
838.342	0.0161317
838.420	0.0161333
838.498	0.0160708
838.576	0.0160760
838.655	0.0159290
838.733	0.0159843
838.811	0.0159732
838.889	0.0159434
838.967	0.0159854
839.045	0.0158705
839.123	0.0159566
839.201	0.0161323
839.280	0.0160329
839.358	0.0159863
839.436	0.0159495
839.514	0.0158949
839.592	0.0158422
839.670	0.0159064
839.748	0.0158438
839.826	0.0158585
839.905	0.0159442
839.983	0.0157826
840.061	0.0158405
840.139	0.0157735
840.217	0.0157219
840.295	0.0155543
840.373	0.0158278
840.451	0.0156258
840.530	0.0156756
840.608	0.0155605
840.686	0.0156701
840.764	0.0155958
840.842	0.0155824
840.920	0.0155402
840.998	0.0155616
841.076	0.0156678
841.155	0.0155407
841.233	0.0155750
841.311	0.0155338
841.389	0.0154720
841.467	0.0155606
841.545	0.0156339
841.623	0.0155886
841.701	0.0155325
841.780	0.0157056
841.858	0.0156786
841.936	0.0156601
842.014	0.0156712
842.092	0.0157108
842.170	0.0157841
842.248	0.0156603
842.326	0.0156569
842.405	0.0158069
842.483	0.0159103
842.561	0.0157316
842.639	0.0157427
842.717	0.0158663
842.795	0.0158940
842.873	0.0156837
842.951	0.0158953
843.030	0.0159647
843.108	0.0159308
843.186	0.0158324
843.264	0.0159390
843.342	0.0159335
843.420	0.0159029
843.498	0.0159567
843.576	0.0159464
843.655	0.0160692
843.733	0.0161357
843.811	0.0159444
843.889	0.0159318
843.967	0.0160100
844.045	0.0159542
844.123	0.0159206
844.201	0.0158331
844.280	0.0159303
844.358	0.0159531
844.436	0.0159007
844.514	0.0159448
844.592	0.0159441
844.670	0.0159192
844.748	0.0158645
844.826	0.0157268
844.905	0.0160307
844.983	0.0159047
845.061	0.0158534
845.139	0.0159389
845.217	0.0158378
845.295	0.0157339
845.373	0.0157848
845.451	0.0159263
845.530	0.0158807
845.608	0.0159737
845.686	0.0158920
845.764	0.0159554
845.842	0.0159726
845.920	0.0159538
845.998	0.0159377
846.076	0.0160206
846.155	0.0160432
846.233	0.0159978
846.311	0.0160564
846.389	0.0159837
846.467	0.0161358
846.545	0.0161371
846.623	0.0160621
846.701	0.0160909
846.780	0.0160812
846.858	0.0160253
846.936	0.0160315
847.014	0.0161441
847.092	0.0160601
847.170	0.0161373
847.248	0.0160843
847.326	0.0161950
847.405	0.0161666
847.483	0.0159737
847.561	0.0161620
847.639	0.0162124
847.717	0.0162782
847.795	0.0160749
847.873	0.0163034
847.951	0.0162787
848.030	0.0161715
848.108	0.0161781
848.186	0.0162165
848.264	0.0162132
848.342	0.0162956
848.420	0.0162003
848.498	0.0160191
848.576	0.0161501
848.655	0.0161623
848.733	0.0160851
848.811	0.0161525
848.889	0.0160761
848.967	0.0161581
849.045	0.0161151
849.123	0.0159884
849.201	0.0161378
849.280	0.0162526
849.358	0.0160780
849.436	0.0162125
849.514	0.0162153
849.592	0.0161295
849.670	0.0162064
849.748	0.0162344
849.826	0.0161455
849.905	0.0162975
849.983	0.0161843
850.061	0.0162035
850.139	0.0163054
850.217	0.0161936
850.295	0.0161466
850.373	0.0160203
850.451	0.0161979
850.530	0.0161711
850.608	0.0160381
850.686	0.0159799
850.764	0.0159428
850.842	0.0160863
850.920	0.0160174
850.998	0.0160635
851.076	0.0160397
851.155	0.0160001
851.233	0.0159676
851.311	0.0159581
851.389	0.0162086
851.467	0.0161712
851.545	0.0159263
851.623	0.0161781
851.701	0.0160818
851.780	0.0160992
851.858	0.0160827
851.936	0.0161441
852.014	0.0161445
852.092	0.0159552
852.170	0.0159656
852.248	0.0159820
852.326	0.0161122
852.405	0.0162849
852.483	0.0160101
852.561	0.0158920
852.639	0.0160273
852.717	0.0161371
852.795	0.0160132
852.873	0.0158787
852.951	0.0158878
853.030	0.0159399
853.108	0.0160116
853.186	0.0159198
853.264	0.0157870
853.342	0.0159122
853.420	0.0158676
853.498	0.0158844
853.576	0.0158922
853.655	0.0159177
853.733	0.0158549
853.811	0.0158870
853.889	0.0158453
853.967	0.0158076
854.045	0.0158545
854.123	0.0159248
854.201	0.0157822
854.280	0.0157934
854.358	0.0156727
854.436	0.0157872
854.514	0.0156732
854.592	0.0157352
854.670	0.0159673
854.748	0.0160346
854.826	0.0160002
854.905	0.0158440
854.983	0.0162170
855.061	0.0161873
855.139	0.0161247
855.217	0.0162109
855.295	0.0162747
855.373	0.0161855
855.451	0.0161385
855.530	0.0162872
855.608	0.0161303
855.686	0.0160526
855.764	0.0160099
855.842	0.0160136
855.920	0.0160668
855.998	0.0160352
856.076	0.0159098
856.155	0.0160323
856.233	0.0159329
856.311	0.0159937
856.389	0.0160397
856.467	0.0159843
856.545	0.0159316
856.623	0.0159812
856.701	0.0159389
856.780	0.0158725
856.858	0.0160124
856.936	0.0159514
857.014	0.0159870
857.092	0.0159572
857.170	0.0159256
857.248	0.0159756
857.326	0.0160260
857.405	0.0159174
857.483	0.0158197
857.561	0.0158496
857.639	0.0159142
857.717	0.0159969
857.795	0.0160598
857.873	0.0159418
857.951	0.0157953
858.030	0.0159833
858.108	0.0161283
858.186	0.0159557
858.264	0.0158392
858.342	0.0158167
858.420	0.0157666
858.498	0.0158094
858.576	0.0158611
858.655	0.0157896
858.733	0.0156184
858.811	0.0157643
858.889	0.0158281
858.967	0.0157967
859.045	0.0157555
859.123	0.0156693
859.201	0.0158575
859.280	0.0159525
859.358	0.0157863
859.436	0.0160001
859.514	0.0159892
859.592	0.0160577
859.670	0.0159335
859.748	0.0159695
859.826	0.0159425
859.905	0.0159163
859.983	0.0158032
860.061	0.0158936
860.139	0.0160083
860.217	0.0161320
860.295	0.0160563
860.373	0.0159923
860.451	0.0159969
860.530	0.0159399
860.608	0.0159832
860.686	0.0160329
860.764	0.0158987
860.842	0.0159865
860.920	0.0160291
860.998	0.0158955
861.076	0.0158466
861.155	0.0158437
861.233	0.0158751
861.311	0.0159680
861.389	0.0158459
861.467	0.0159330
861.545	0.0158835
861.623	0.0158237
861.701	0.0157948
861.780	0.0158958
861.858	0.0159416
861.936	0.0158248
862.014	0.0160149
862.092	0.0160656
862.170	0.0159938
862.248	0.0159689
862.326	0.0160679
862.405	0.0160250
862.483	0.0160878
862.561	0.0161983
862.639	0.0160630
862.717	0.0161030
862.795	0.0162093
862.873	0.0162383
862.951	0.0161600
863.030	0.0161411
863.108	0.0161519
863.186	0.0161111
863.264	0.0159396
863.342	0.0160998
863.420	0.0161774
863.498	0.0161509
863.576	0.0160688
863.655	0.0160684
863.733	0.0160754
863.811	0.0161170
863.889	0.0160085
863.967	0.0160225
864.045	0.0161707
864.123	0.0159579
864.201	0.0158862
864.280	0.0159900
864.358	0.0160628
864.436	0.0161236
864.514	0.0159922
864.592	0.0160445
864.670	0.0160613
864.748	0.0161195
864.826	0.0161813
864.905	0.0160625
864.983	0.0161644
865.061	0.0160732
865.139	0.0160768
865.217	0.0161478
865.295	0.0158886
865.373	0.0160327
865.451	0.0160123
865.530	0.0160238
865.608	0.0160095
865.686	0.0160438
865.764	0.0161988
865.842	0.0159780
865.920	0.0160432
865.998	0.0160914
866.076	0.0161530
866.155	0.0160081
866.233	0.0158982
866.311	0.0160194
866.389	0.0160515
866.467	0.0159818
866.545	0.0160197
866.623	0.0159932
866.701	0.0160123
866.780	0.0160964
866.858	0.0160793
866.936	0.0161176
867.014	0.0161284
867.092	0.0161484
867.170	0.0160645
867.248	0.0159576
867.326	0.0161646
867.405	0.0161343
867.483	0.0161805
867.561	0.0160625
867.639	0.0159699
867.717	0.0160022
867.795	0.0159710
867.873	0.0159880
867.951	0.0158898
868.030	0.0158727
868.108	0.0158740
868.186	0.0160030
868.264	0.0158515
868.342	0.0157793
868.420	0.0157471
868.498	0.0158805
868.576	0.0158548
868.655	0.0159714
868.733	0.0158849
868.811	0.0158439
868.889	0.0158823
868.967	0.0158942
869.045	0.0161333
869.123	0.0160790
869.201	0.0159203
869.280	0.0160596
869.358	0.0158990
869.436	0.0158984
869.514	0.0160915
869.592	0.0159407
869.670	0.0159664
869.748	0.0160641
869.826	0.0160344
869.905	0.0159221
869.983	0.0159810
870.061	0.0160118
870.139	0.0158706
870.217	0.0158968
870.295	0.0160737
870.373	0.0160229
870.451	0.0159597
870.530	0.0158772
870.608	0.0159776
870.686	0.0159550
870.764	0.0160762
870.842	0.0160641
870.920	0.0161096
870.998	0.0160938
871.076	0.0160986
871.155	0.0160111
871.233	0.0160223
871.311	0.0160146
871.389	0.0160853
871.467	0.0161623
871.545	0.0161335
871.623	0.0160212
871.701	0.0161381
871.780	0.0160588
871.858	0.0159699
871.936	0.0161061
872.014	0.0160252
872.092	0.0159081
872.170	0.0161117
872.248	0.0160974
872.326	0.0158856
872.405	0.0161012
872.483	0.0160838
872.561	0.0159577
872.639	0.0158701
872.717	0.0159338
872.795	0.0159989
872.873	0.0159074
872.951	0.0159389
873.030	0.0159213
873.108	0.0159740
873.186	0.0160706
873.264	0.0160082
873.342	0.0159553
873.420	0.0160198
873.498	0.0160247
873.576	0.0159600
873.655	0.0160349
873.733	0.0159342
873.811	0.0158912
873.889	0.0160258
873.967	0.0161293
874.045	0.0161365
874.123	0.0160836
874.201	0.0161178
874.280	0.0160465
874.358	0.0161522
874.436	0.0161631
874.514	0.0161634
874.592	0.0162486
874.670	0.0161551
874.748	0.0161504
874.826	0.0162129
874.905	0.0162000
874.983	0.0160889
875.061	0.0160504
875.139	0.0163634
875.217	0.0162657
875.295	0.0161137
875.373	0.0161135
875.451	0.0161208
875.530	0.0160607
875.608	0.0161772
875.686	0.0160339
875.764	0.0159717
875.842	0.0160512
875.920	0.0160018
875.998	0.0159659
876.076	0.0160493
876.155	0.0158714
876.233	0.0159921
876.311	0.0160503
876.389	0.0159562
876.467	0.0160119
876.545	0.0160360
876.623	0.0160163
876.701	0.0160870
876.780	0.0160441
876.858	0.0159940
876.936	0.0159787
877.014	0.0161080
877.092	0.0161417
877.170	0.0161493
877.248	0.0162536
877.326	0.0161999
877.405	0.0159560
877.483	0.0160387
877.561	0.0160678
877.639	0.0161813
877.717	0.0161451
877.795	0.0161990
877.873	0.0160316
877.951	0.0161940
878.030	0.0160699
878.108	0.0161301
878.186	0.0162405
878.264	0.0160494
878.342	0.0160947
878.420	0.0160596
878.498	0.0161177
878.576	0.0159684
878.655	0.0160345
878.733	0.0159979
878.811	0.0160925
878.889	0.0160941
878.967	0.0160490
879.045	0.0161095
879.123	0.0160625
879.201	0.0160281
879.280	0.0161053
879.358	0.0160757
879.436	0.0161308
879.514	0.0160418
879.592	0.0159963
879.670	0.0162275
879.748	0.0162132
879.826	0.0160995
879.905	0.0162667
879.983	0.0161155
880.061	0.0163046
880.139	0.0162574
880.217	0.0162788
880.295	0.0161935
880.373	0.0162351
880.451	0.0163013
880.530	0.0163496
880.608	0.0160801
880.686	0.0161915
880.764	0.0160623
880.842	0.0161189
880.920	0.0162138
880.998	0.0161491
881.076	0.0160997
881.155	0.0161971
881.233	0.0160751
881.311	0.0161998
881.389	0.0160773
881.467	0.0160247
881.545	0.0159676
881.623	0.0161300
881.701	0.0161491
881.780	0.0160482
881.858	0.0160693
881.936	0.0160648
882.014	0.0160527
882.092	0.0160632
882.170	0.0160463
882.248	0.0159713
882.326	0.0160276
882.405	0.0161151
882.483	0.0161039
882.561	0.0161317
882.639	0.0160326
882.717	0.0158871
882.795	0.0159951
882.873	0.0161550
882.951	0.0161210
883.030	0.0160265
883.108	0.0160641
883.186	0.0160516
883.264	0.0160376
883.342	0.0160250
883.420	0.0159627
883.498	0.0160069
883.576	0.0160155
883.655	0.0158615
883.733	0.0159941
883.811	0.0159092
883.889	0.0158400
883.967	0.0158184
884.045	0.0159307
884.123	0.0158871
884.201	0.0158821
884.280	0.0158430
884.358	0.0158924
884.436	0.0158935
884.514	0.0158926
884.592	0.0158098
884.670	0.0159105
884.748	0.0159209
884.826	0.0159279
884.905	0.0160355
884.983	0.0159717
885.061	0.0159189
885.139	0.0159330
885.217	0.0160407
885.295	0.0161163
885.373	0.0160235
885.451	0.0159448
885.530	0.0159129
885.608	0.0158469
885.686	0.0159119
885.764	0.0158657
885.842	0.0157308
885.920	0.0157093
885.998	0.0157613
886.076	0.0158421
886.155	0.0158086
886.233	0.0157137
886.311	0.0157448
886.389	0.0158246
886.467	0.0156697
886.545	0.0158149
886.623	0.0157830
886.701	0.0157751
886.780	0.0158576
886.858	0.0158207
886.936	0.0157468
887.014	0.0158501
887.092	0.0158894
887.170	0.0159192
887.248	0.0159433
887.326	0.0158714
887.405	0.0157437
887.483	0.0159656
887.561	0.0157941
887.639	0.0159346
887.717	0.0158754
887.795	0.0160476
887.873	0.0158649
887.951	0.0159274
888.030	0.0160258
888.108	0.0160926
888.186	0.0160806
888.264	0.0160737
888.342	0.0158915
888.420	0.0159768
888.498	0.0160882
888.576	0.0160415
888.655	0.0160209
888.733	0.0157859
888.811	0.0159587
888.889	0.0160404
888.967	0.0160658
889.045	0.0160175
889.123	0.0158905
889.201	0.0159900
889.280	0.0160692
889.358	0.0161207
889.436	0.0159530
889.514	0.0160152
889.592	0.0160793
889.670	0.0158754
889.748	0.0160480
889.826	0.0159681
889.905	0.0160312
889.983	0.0160613
890.061	0.0160929
890.139	0.0160482
890.217	0.0160203
890.295	0.0160896
890.373	0.0159952
890.451	0.0160854
890.530	0.0160188
890.608	0.0159680
890.686	0.0159912
890.764	0.0161323
890.842	0.0160673
890.920	0.0159743
890.998	0.0161604
891.076	0.0159922
891.155	0.0161904
891.233	0.0160873
891.311	0.0159364
891.389	0.0161037
891.467	0.0162374
891.545	0.0162178
891.623	0.0162051
891.701	0.0163268
891.780	0.0163323
891.858	0.0161635
891.936	0.0161532
892.014	0.0162252
892.092	0.0160709
892.170	0.0161761
892.248	0.0161182
892.326	0.0161158
892.405	0.0161369
892.483	0.0160283
892.561	0.0160838
892.639	0.0160923
892.717	0.0160946
892.795	0.0160070
892.873	0.0159666
892.951	0.0160754
893.030	0.0161811
893.108	0.0160832
893.186	0.0159953
893.264	0.0160559
893.342	0.0159528
893.420	0.0160754
893.498	0.0161250
893.576	0.0160426
893.655	0.0160123
893.733	0.0161762
893.811	0.0161362
893.889	0.0161987
893.967	0.0162243
894.045	0.0160875
894.123	0.0162567
894.201	0.0160287
894.280	0.0159624
894.358	0.0159996
894.436	0.0159879
894.514	0.0161953
894.592	0.0160105
894.670	0.0161158
894.748	0.0161719
894.826	0.0159898
894.905	0.0161417
894.983	0.0162049
895.061	0.0161567
895.139	0.0160010
895.217	0.0160757
895.295	0.0161419
895.373	0.0161791
895.451	0.0161794
895.530	0.0160976
895.608	0.0161580
895.686	0.0161047
895.764	0.0160580
895.842	0.0159754
895.920	0.0161685
895.998	0.0161360
896.076	0.0160551
896.155	0.0160303
896.233	0.0160690
896.311	0.0159753
896.389	0.0159698
896.467	0.0160171
896.545	0.0160670
896.623	0.0159660
896.701	0.0159391
896.780	0.0160179
896.858	0.0160132
896.936	0.0161250
897.014	0.0160044
897.092	0.0159978
897.170	0.0160574
897.248	0.0161062
897.326	0.0161129
897.405	0.0161781
897.483	0.0160285
897.561	0.0159827
897.639	0.0160123
897.717	0.0160170
897.795	0.0160617
897.873	0.0160302
897.951	0.0159844
898.030	0.0160101
898.108	0.0161271
898.186	0.0160717
898.264	0.0161117
898.342	0.0160187
898.420	0.0159048
898.498	0.0159512
898.576	0.0160971
898.655	0.0159871
898.733	0.0161716
898.811	0.0160043
898.889	0.0160209
898.967	0.0159475
899.045	0.0160558
899.123	0.0160449
899.201	0.0159157
899.280	0.0160068
899.358	0.0160120
899.436	0.0158826
899.514	0.0158303
899.592	0.0159556
899.670	0.0159153
899.748	0.0157847
899.826	0.0158637
899.905	0.0160123
899.983	0.0158707
900.061	0.0158994
900.139	0.0160167
900.217	0.0158591
900.295	0.0158496
900.373	0.0158878
900.451	0.0159719
900.530	0.0159303
900.608	0.0159317
900.686	0.0158425
900.764	0.0158726
900.842	0.0158479
900.920	0.0158610
900.998	0.0158796
901.076	0.0157211
901.155	0.0157966
901.233	0.0159470
901.311	0.0159945
901.389	0.0158053
901.467	0.0158039
901.545	0.0158725
901.623	0.0157813
901.701	0.0157578
901.780	0.0157639
901.858	0.0158627
901.936	0.0158397
902.014	0.0156153
902.092	0.0158176
902.170	0.0158636
902.248	0.0158939
902.326	0.0158451
902.405	0.0158884
902.483	0.0158363
902.561	0.0159719
902.639	0.0158110
902.717	0.0158663
902.795	0.0159335
902.873	0.0157995
902.951	0.0158744
903.030	0.0158719
903.108	0.0159855
903.186	0.0158472
903.264	0.0159261
903.342	0.0158905
903.420	0.0160027
903.498	0.0160821
903.576	0.0158240
903.655	0.0158420
903.733	0.0159376
903.811	0.0160046
903.889	0.0158616
903.967	0.0159770
904.045	0.0159776
904.123	0.0160358
904.201	0.0159646
904.280	0.0159944
904.358	0.0160432
904.436	0.0160361
904.514	0.0160499
904.592	0.0159049
904.670	0.0159456
904.748	0.0160340
904.826	0.0159803
904.905	0.0158521
904.983	0.0159081
905.061	0.0159755
905.139	0.0159324
905.217	0.0160061
905.295	0.0159425
905.373	0.0159936
905.451	0.0159488
905.530	0.0159833
905.608	0.0158914
905.686	0.0160732
905.764	0.0159271
905.842	0.0159846
905.920	0.0158732
905.998	0.0158579
906.076	0.0159587
906.155	0.0159356
906.233	0.0159586
906.311	0.0159293
906.389	0.0160242
906.467	0.0159414
906.545	0.0159783
906.623	0.0160240
906.701	0.0160112
906.780	0.0158890
906.858	0.0159387
906.936	0.0158911
907.014	0.0160066
907.092	0.0159483
907.170	0.0158811
907.248	0.0160416
907.326	0.0159339
907.405	0.0159166
907.483	0.0160474
907.561	0.0159934
907.639	0.0158162
907.717	0.0159086
907.795	0.0159650
907.873	0.0161116
907.951	0.0159455
908.030	0.0159651
908.108	0.0159400
908.186	0.0160344
908.264	0.0160085
908.342	0.0161612
908.420	0.0160995
908.498	0.0160666
908.576	0.0160894
908.655	0.0161663
908.733	0.0161861
908.811	0.0162008
908.889	0.0161380
908.967	0.0160645
909.045	0.0159972
909.123	0.0161964
909.201	0.0161458
909.280	0.0160084
909.358	0.0160947
909.436	0.0160046
909.514	0.0160508
909.592	0.0160423
909.670	0.0159574
909.748	0.0160916
909.826	0.0159639
909.905	0.0159537
909.983	0.0160873
910.061	0.0160890
910.139	0.0161761
910.217	0.0160913
910.295	0.0161261
910.373	0.0161523
910.451	0.0160048
910.530	0.0161570
910.608	0.0161305
910.686	0.0162380
910.764	0.0162041
910.842	0.0159886
910.920	0.0160654
910.998	0.0161198
911.076	0.0160599
911.155	0.0160689
911.233	0.0160969
911.311	0.0160985
911.389	0.0159892
911.467	0.0159789
911.545	0.0160587
911.623	0.0160349
911.701	0.0160093
911.780	0.0160908
911.858	0.0160715
911.936	0.0159790
912.014	0.0159150
912.092	0.0158089
912.170	0.0160372
912.248	0.0160101
912.326	0.0160168
912.405	0.0159762
912.483	0.0159497
912.561	0.0159669
912.639	0.0159507
912.717	0.0160036
912.795	0.0160535
912.873	0.0161311
912.951	0.0160867
913.030	0.0159058
913.108	0.0160456
913.186	0.0160048
913.264	0.0159276
913.342	0.0159814
913.420	0.0158022
913.498	0.0160649
913.576	0.0159615
913.655	0.0159763
913.733	0.0157254
913.811	0.0157288
913.889	0.0159327
913.967	0.0159437
914.045	0.0159673
914.123	0.0158449
914.201	0.0157732
914.280	0.0157576
914.358	0.0156924
914.436	0.0157494
914.514	0.0157546
914.592	0.0158340
914.670	0.0158852
914.748	0.0158454
914.826	0.0158707
914.905	0.0157793
914.983	0.0157400
915.061	0.0158038
915.139	0.0158112
915.217	0.0157680
915.295	0.0159265
915.373	0.0159342
915.451	0.0158766
915.530	0.0158796
915.608	0.0160762
915.686	0.0158382
915.764	0.0158913
915.842	0.0159259
915.920	0.0158922
915.998	0.0158986
916.076	0.0158852
916.155	0.0159563
916.233	0.0159239
916.311	0.0159756
916.389	0.0158860
916.467	0.0160227
916.545	0.0160783
916.623	0.0160717
916.701	0.0159064
916.780	0.0159194
916.858	0.0159383
916.936	0.0160339
917.014	0.0158986
917.092	0.0159442
917.170	0.0159179
917.248	0.0159647
917.326	0.0160502
917.405	0.0159884
917.483	0.0158619
917.561	0.0159646
917.639	0.0159495
917.717	0.0159542
917.795	0.0159221
917.873	0.0157829
917.951	0.0158287
918.030	0.0157738
918.108	0.0158952
918.186	0.0158369
918.264	0.0156579
918.342	0.0158009
918.420	0.0156737
918.498	0.0157597
918.576	0.0157505
918.655	0.0156892
918.733	0.0158263
918.811	0.0158223
918.889	0.0158302
918.967	0.0157793
919.045	0.0157371
919.123	0.0157417
919.201	0.0158463
919.280	0.0158535
919.358	0.0159225
919.436	0.0160199
919.514	0.0158959
919.592	0.0157333
919.670	0.0159825
919.748	0.0159519
919.826	0.0159901
919.905	0.0159421
919.983	0.0158973
920.061	0.0159515
920.139	0.0158015
920.217	0.0158771
920.295	0.0159380
920.373	0.0157524
920.451	0.0157533
920.530	0.0157442
920.608	0.0157306
920.686	0.0157871
920.764	0.0156819
920.842	0.0159335
920.920	0.0159227
920.998	0.0159168
921.076	0.0157789
921.155	0.0158097
921.233	0.0157995
921.311	0.0159500
921.389	0.0160558
921.467	0.0159424
921.545	0.0159690
921.623	0.0159019
921.701	0.0159274
921.780	0.0159536
921.858	0.0158686
921.936	0.0159738
922.014	0.0159820
922.092	0.0158660
922.170	0.0159804
922.248	0.0158927
922.326	0.0157886
922.405	0.0160618
922.483	0.0159536
922.561	0.0158066
922.639	0.0158335
922.717	0.0158449
922.795	0.0158981
922.873	0.0157939
922.951	0.0157631
923.030	0.0156727
923.108	0.0157933
923.186	0.0157764
923.264	0.0158585
923.342	0.0158740
923.420	0.0158641
923.498	0.0159669
923.576	0.0159921
923.655	0.0159948
923.733	0.0157380
923.811	0.0158176
923.889	0.0159654
923.967	0.0159562
924.045	0.0158925
924.123	0.0157874
924.201	0.0158997
924.280	0.0158817
924.358	0.0157937
924.436	0.0158094
924.514	0.0157961
924.592	0.0158540
924.670	0.0158470
924.748	0.0157619
924.826	0.0158537
924.905	0.0158923
924.983	0.0158315
925.061	0.0159428
925.139	0.0158251
925.217	0.0158923
925.295	0.0158725
925.373	0.0157853
925.451	0.0160428
925.530	0.0160047
925.608	0.0159820
925.686	0.0158768
925.764	0.0158972
925.842	0.0159633
925.920	0.0160468
925.998	0.0159672
926.076	0.0162345
926.155	0.0161359
926.233	0.0159626
926.311	0.0160661
926.389	0.0160287
926.467	0.0161708
926.545	0.0161543
926.623	0.0161369
926.701	0.0162128
926.780	0.0162606
926.858	0.0161570
926.936	0.0163032
927.014	0.0162521
927.092	0.0162749
927.170	0.0162368
927.248	0.0162187
927.326	0.0161413
927.405	0.0163457
927.483	0.0162667
927.561	0.0163040
927.639	0.0161942
927.717	0.0163751
927.795	0.0162931
927.873	0.0163244
927.951	0.0163541
928.030	0.0163346
928.108	0.0162884
928.186	0.0162875
928.264	0.0162216
928.342	0.0162125
928.420	0.0161758
928.498	0.0160188
928.576	0.0161759
928.655	0.0160569
928.733	0.0160889
928.811	0.0160693
928.889	0.0160329
928.967	0.0160592
929.045	0.0159853
929.123	0.0160123
929.201	0.0161756
929.280	0.0161251
929.358	0.0160063
929.436	0.0159702
929.514	0.0160183
929.592	0.0159844
929.670	0.0161408
929.748	0.0160327
929.826	0.0161503
929.905	0.0160914
929.983	0.0160626
930.061	0.0160197
930.139	0.0159213
930.217	0.0160496
930.295	0.0160832
930.373	0.0160793
930.451	0.0161589
930.530	0.0159858
930.608	0.0159359
930.686	0.0158815
930.764	0.0159930
930.842	0.0159653
930.920	0.0158530
930.998	0.0159226
931.076	0.0158372
931.155	0.0157793
931.233	0.0158565
931.311	0.0157598
931.389	0.0157058
931.467	0.0158210
931.545	0.0158210
931.623	0.0159227
931.701	0.0156261
931.780	0.0156753
931.858	0.0155614
931.936	0.0157046
932.014	0.0157231
932.092	0.0155977
932.170	0.0156461
932.248	0.0156555
932.326	0.0157661
932.405	0.0157404
932.483	0.0157203
932.561	0.0158752
932.639	0.0158432
932.717	0.0157455
932.795	0.0159026
932.873	0.0159123
932.951	0.0158766
933.030	0.0159533
933.108	0.0158772
933.186	0.0160498
933.264	0.0161212
933.342	0.0160982
933.420	0.0159948
933.498	0.0159808
933.576	0.0160157
933.655	0.0159846
933.733	0.0159041
933.811	0.0161542
933.889	0.0161205
933.967	0.0161182
934.045	0.0159619
934.123	0.0161691
934.201	0.0161787
934.280	0.0160777
934.358	0.0161007
934.436	0.0160585
934.514	0.0161144
934.592	0.0161620
934.670	0.0161601
934.748	0.0162600
934.826	0.0161884
934.905	0.0161555
934.983	0.0161115
935.061	0.0160193
935.139	0.0161121
935.217	0.0160290
935.295	0.0160180
935.373	0.0160799
935.451	0.0161266
935.530	0.0160223
935.608	0.0159573
935.686	0.0159425
935.764	0.0160332
935.842	0.0157523
935.920	0.0158043
935.998	0.0159137
936.076	0.0158654
936.155	0.0158617
936.233	0.0158388
936.311	0.0159322
936.389	0.0159271
936.467	0.0159882
936.545	0.0158052
936.623	0.0158879
936.701	0.0158362
936.780	0.0157888
936.858	0.0159736
936.936	0.0159018
937.014	0.0158744
937.092	0.0159953
937.170	0.0160110
937.248	0.0160271
937.326	0.0160101
937.405	0.0159465
937.483	0.0159986
937.561	0.0160526
937.639	0.0160465
937.717	0.0160177
937.795	0.0160365
937.873	0.0160917
937.951	0.0161723
938.030	0.0159082
938.108	0.0160229
938.186	0.0161166
938.264	0.0161449
938.342	0.0161629
938.420	0.0162134
938.498	0.0161493
938.576	0.0161444
938.655	0.0160613
938.733	0.0160831
938.811	0.0161656
938.889	0.0162279
938.967	0.0160475
939.045	0.0160899
939.123	0.0163661
939.201	0.0161551
939.280	0.0161089
939.358	0.0161672
939.436	0.0160608
939.514	0.0162218
939.592	0.0162403
939.670	0.0161221
939.748	0.0161167
939.826	0.0160655
939.905	0.0161786
939.983	0.0161744
940.061	0.0161436
940.139	0.0162112
940.217	0.0161568
940.295	0.0161150
940.373	0.0161838
940.451	0.0162234
940.530	0.0163165
940.608	0.0162830
940.686	0.0162358
940.764	0.0162444
940.842	0.0162438
940.920	0.0161906
940.998	0.0161781
941.076	0.0162075
941.155	0.0163248
941.233	0.0162585
941.311	0.0161737
941.389	0.0161250
941.467	0.0161332
941.545	0.0161308
941.623	0.0161104
941.701	0.0161729
941.780	0.0161681
941.858	0.0159234
941.936	0.0160029
942.014	0.0161320
942.092	0.0159677
942.170	0.0160738
942.248	0.0160202
942.326	0.0159315
942.405	0.0159615
942.483	0.0160418
942.561	0.0159909
942.639	0.0158735
942.717	0.0158627
942.795	0.0157732
942.873	0.0159233
942.951	0.0160329
943.030	0.0157877
943.108	0.0158642
943.186	0.0159795
943.264	0.0158090
943.342	0.0158775
943.420	0.0158007
943.498	0.0158030
943.576	0.0156847
943.655	0.0158739
943.733	0.0158672
943.811	0.0158009
943.889	0.0159259
943.967	0.0157845
944.045	0.0158572
944.123	0.0158945
944.201	0.0157282
944.280	0.0158521
944.358	0.0158566
944.436	0.0157840
944.514	0.0157327
944.592	0.0160019
944.670	0.0159081
944.748	0.0158530
944.826	0.0158552
944.905	0.0158884
944.983	0.0157771
945.061	0.0158775
945.139	0.0158237
945.217	0.0158588
945.295	0.0157965
945.373	0.0158375
945.451	0.0158794
945.530	0.0159344
945.608	0.0158410
945.686	0.0159003
945.764	0.0159657
945.842	0.0158957
945.920	0.0158726
945.998	0.0158035
946.076	0.0158101
946.155	0.0158964
946.233	0.0158406
946.311	0.0159665
946.389	0.0159127
946.467	0.0158537
946.545	0.0158891
946.623	0.0160316
946.701	0.0159997
946.780	0.0158383
946.858	0.0159732
946.936	0.0159969
947.014	0.0159184
947.092	0.0160330
947.170	0.0160499
947.248	0.0158908
947.326	0.0160495
947.405	0.0160480
947.483	0.0160963
947.561	0.0161161
947.639	0.0160645
947.717	0.0160723
947.795	0.0159580
947.873	0.0161198
947.951	0.0161973
948.030	0.0162598
948.108	0.0161551
948.186	0.0162154
948.264	0.0161989
948.342	0.0162360
948.420	0.0162492
948.498	0.0161624
948.576	0.0162359
948.655	0.0163904
948.733	0.0163367
948.811	0.0163572
948.889	0.0163272
948.967	0.0162419
949.045	0.0162919
949.123	0.0162520
949.201	0.0163304
949.280	0.0162574
949.358	0.0161846
949.436	0.0161450
949.514	0.0162171
949.592	0.0160480
949.670	0.0161911
949.748	0.0163131
949.826	0.0160886
949.905	0.0161068
949.983	0.0160143
950.061	0.0160847
950.139	0.0160509
950.217	0.0160041
950.295	0.0160727
950.373	0.0159666
950.451	0.0159753
950.530	0.0161408
950.608	0.0160319
950.686	0.0158708
950.764	0.0161108
950.842	0.0160945
950.920	0.0161272
950.998	0.0159487
951.076	0.0159490
951.155	0.0159940
951.233	0.0159879
951.311	0.0160458
951.389	0.0160875
951.467	0.0160154
951.545	0.0159656
951.623	0.0159357
951.701	0.0160605
951.780	0.0159629
951.858	0.0161012
951.936	0.0160602
952.014	0.0159691
952.092	0.0161617
952.170	0.0161022
952.248	0.0159733
952.326	0.0161190
952.405	0.0161529
952.483	0.0162226
952.561	0.0162298
952.639	0.0162130
952.717	0.0162054
952.795	0.0161084
952.873	0.0160708
952.951	0.0162228
953.030	0.0163308
953.108	0.0162365
953.186	0.0161957
953.264	0.0161979
953.342	0.0162020
953.420	0.0161732
953.498	0.0162512
953.576	0.0161101
953.655	0.0160835
953.733	0.0160965
953.811	0.0161924
953.889	0.0161891
953.967	0.0161213
954.045	0.0159833
954.123	0.0160928
954.201	0.0159316
954.280	0.0159626
954.358	0.0160908
954.436	0.0159070
954.514	0.0160197
954.592	0.0160381
954.670	0.0159070
954.748	0.0159126
954.826	0.0159424
954.905	0.0158665
954.983	0.0159332
955.061	0.0159621
955.139	0.0160726
955.217	0.0159183
955.295	0.0159608
955.373	0.0160537
955.451	0.0159524
955.530	0.0160211
955.608	0.0159804
955.686	0.0159477
955.764	0.0158562
955.842	0.0159946
955.920	0.0160107
955.998	0.0160783
956.076	0.0160271
956.155	0.0159514
956.233	0.0160023
956.311	0.0159754
956.389	0.0161046
956.467	0.0161144
956.545	0.0161161
956.623	0.0160982
956.701	0.0160287
956.780	0.0160434
956.858	0.0161211
956.936	0.0161442
957.014	0.0160207
957.092	0.0160050
957.170	0.0159830
957.248	0.0160519
957.326	0.0161385
957.405	0.0159355
957.483	0.0159764
957.561	0.0158231
957.639	0.0158978
957.717	0.0160340
957.795	0.0159682
957.873	0.0159517
957.951	0.0159789
958.030	0.0159596
958.108	0.0159315
958.186	0.0159521
958.264	0.0159212
958.342	0.0158557
958.420	0.0160620
958.498	0.0160956
958.576	0.0159662
958.655	0.0160831
958.733	0.0161217
958.811	0.0159318
958.889	0.0160561
958.967	0.0161646
959.045	0.0163258
959.123	0.0161253
959.201	0.0160126
959.280	0.0162267
959.358	0.0161659
959.436	0.0162681
959.514	0.0162257
959.592	0.0164204
959.670	0.0163358
959.748	0.0163810
959.826	0.0162636
959.905	0.0163526
