05/17/2022	17:05:19	Ver.	4.1	UNKNOWN
Optical Delay	639.982744	Delta X		0.078125	Sweeps	1	Scan Rate	0/0
Coordinates	Axis 1	NaN	Axis 2	NaN	Axis 3	NaN	Axis 4	NaN	Axis 5	NaN	Axis 6	0.000000
TX Power	0.000000	RX Power	0.000000

639.983	0.0163729
640.061	0.0163988
640.139	0.0164825
640.217	0.0163260
640.295	0.0162933
640.373	0.0164229
640.451	0.0164182
640.530	0.0163472
640.608	0.0164110
640.686	0.0163504
640.764	0.0162106
640.842	0.0162683
640.920	0.0163388
640.998	0.0162925
641.076	0.0163146
641.155	0.0162618
641.233	0.0162928
641.311	0.0163148
641.389	0.0163554
641.467	0.0163809
641.545	0.0163598
641.623	0.0163795
641.701	0.0164090
641.780	0.0164017
641.858	0.0163593
641.936	0.0163778
642.014	0.0163586
642.092	0.0163905
642.170	0.0164582
642.248	0.0164179
642.326	0.0163620
642.405	0.0164414
642.483	0.0164691
642.561	0.0163444
642.639	0.0163784
642.717	0.0163804
642.795	0.0163863
642.873	0.0164157
642.951	0.0163969
643.030	0.0163000
643.108	0.0165036
643.186	0.0165540
643.264	0.0163933
643.342	0.0164784
643.420	0.0164292
643.498	0.0165173
643.576	0.0166070
643.655	0.0165973
643.733	0.0165779
643.811	0.0165698
643.889	0.0164832
643.967	0.0166039
644.045	0.0166969
644.123	0.0165747
644.201	0.0166334
644.280	0.0165549
644.358	0.0166473
644.436	0.0165250
644.514	0.0166228
644.592	0.0166081
644.670	0.0165740
644.748	0.0166185
644.826	0.0167126
644.905	0.0165574
644.983	0.0166097
645.061	0.0166144
645.139	0.0166716
645.217	0.0167194
645.295	0.0166454
645.373	0.0167530
645.451	0.0168112
645.530	0.0166034
645.608	0.0168239
645.686	0.0166496
645.764	0.0167358
645.842	0.0166692
645.920	0.0165730
645.998	0.0166981
646.076	0.0165650
646.155	0.0167337
646.233	0.0166173
646.311	0.0166544
646.389	0.0166314
646.467	0.0167605
646.545	0.0165768
646.623	0.0165496
646.701	0.0165945
646.780	0.0164506
646.858	0.0166180
646.936	0.0166444
647.014	0.0167198
647.092	0.0167358
647.170	0.0165595
647.248	0.0166576
647.326	0.0166756
647.405	0.0166892
647.483	0.0166670
647.561	0.0166454
647.639	0.0166910
647.717	0.0166624
647.795	0.0165720
647.873	0.0166011
647.951	0.0165216
648.030	0.0166032
648.108	0.0166407
648.186	0.0165810
648.264	0.0165508
648.342	0.0165240
648.420	0.0164914
648.498	0.0165419
648.576	0.0166311
648.655	0.0165296
648.733	0.0165763
648.811	0.0166357
648.889	0.0164494
648.967	0.0164479
649.045	0.0165124
649.123	0.0166389
649.201	0.0164287
649.280	0.0164679
649.358	0.0164536
649.436	0.0164637
649.514	0.0164114
649.592	0.0164410
649.670	0.0165774
649.748	0.0164405
649.826	0.0165658
649.905	0.0164989
649.983	0.0165507
650.061	0.0164181
650.139	0.0163866
650.217	0.0165168
650.295	0.0163961
650.373	0.0164264
650.451	0.0163870
650.530	0.0163647
650.608	0.0164348
650.686	0.0164724
650.764	0.0163593
650.842	0.0164930
650.920	0.0164545
650.998	0.0165221
651.076	0.0165454
651.155	0.0165788
651.233	0.0164741
651.311	0.0165259
651.389	0.0166714
651.467	0.0165347
651.545	0.0166716
651.623	0.0166209
651.701	0.0166174
651.780	0.0166136
651.858	0.0165529
651.936	0.0163727
652.014	0.0165820
652.092	0.0166354
652.170	0.0167745
652.248	0.0166945
652.326	0.0164929
652.405	0.0165457
652.483	0.0165968
652.561	0.0165733
652.639	0.0166954
652.717	0.0166797
652.795	0.0166574
652.873	0.0167512
652.951	0.0167090
653.030	0.0166283
653.108	0.0165997
653.186	0.0165002
653.264	0.0164378
653.342	0.0165936
653.420	0.0164649
653.498	0.0165358
653.576	0.0165567
653.655	0.0164754
653.733	0.0164569
653.811	0.0164970
653.889	0.0165202
653.967	0.0164155
654.045	0.0164210
654.123	0.0164683
654.201	0.0165625
654.280	0.0165948
654.358	0.0164639
654.436	0.0165282
654.514	0.0165317
654.592	0.0166052
654.670	0.0165429
654.748	0.0165580
654.826	0.0164285
654.905	0.0166322
654.983	0.0166441
655.061	0.0164649
655.139	0.0166369
655.217	0.0165746
655.295	0.0166165
655.373	0.0166370
655.451	0.0166975
655.530	0.0166324
655.608	0.0163981
655.686	0.0165599
655.764	0.0163947
655.842	0.0164390
655.920	0.0165205
655.998	0.0166143
656.076	0.0164374
656.155	0.0165736
656.233	0.0166411
656.311	0.0165829
656.389	0.0164910
656.467	0.0165330
656.545	0.0165247
656.623	0.0165148
656.701	0.0165115
656.780	0.0165269
656.858	0.0165647
656.936	0.0164866
657.014	0.0164864
657.092	0.0164613
657.170	0.0164848
657.248	0.0164670
657.326	0.0165828
657.405	0.0164925
657.483	0.0164880
657.561	0.0164524
657.639	0.0163927
657.717	0.0164404
657.795	0.0164615
657.873	0.0164911
657.951	0.0164430
658.030	0.0164935
658.108	0.0165022
658.186	0.0165545
658.264	0.0163177
658.342	0.0163882
658.420	0.0164655
658.498	0.0163811
658.576	0.0162646
658.655	0.0162771
658.733	0.0163542
658.811	0.0163557
658.889	0.0165434
658.967	0.0162086
659.045	0.0163457
659.123	0.0163000
659.201	0.0162956
659.280	0.0163515
659.358	0.0162140
659.436	0.0163042
659.514	0.0162392
659.592	0.0164066
659.670	0.0163006
659.748	0.0161911
659.826	0.0162511
659.905	0.0163598
659.983	0.0164107
660.061	0.0162813
660.139	0.0163138
660.217	0.0163692
660.295	0.0162258
660.373	0.0163751
660.451	0.0163797
660.530	0.0164406
660.608	0.0163129
660.686	0.0163277
660.764	0.0164549
660.842	0.0162440
660.920	0.0162543
660.998	0.0163962
661.076	0.0164123
661.155	0.0163148
661.233	0.0163390
661.311	0.0163401
661.389	0.0163777
661.467	0.0162090
661.545	0.0162122
661.623	0.0162656
661.701	0.0163364
661.780	0.0162520
661.858	0.0161086
661.936	0.0161431
662.014	0.0160967
662.092	0.0160674
662.170	0.0159574
662.248	0.0158990
662.326	0.0160597
662.405	0.0160204
662.483	0.0160115
662.561	0.0159529
662.639	0.0160378
662.717	0.0160497
662.795	0.0160935
662.873	0.0160979
662.951	0.0160728
663.030	0.0163014
663.108	0.0162524
663.186	0.0162722
663.264	0.0163510
663.342	0.0164799
663.420	0.0163776
663.498	0.0164877
663.576	0.0167210
663.655	0.0166557
663.733	0.0167471
663.811	0.0167124
663.889	0.0167899
663.967	0.0168629
664.045	0.0167780
664.123	0.0166707
664.201	0.0168341
664.280	0.0167722
664.358	0.0168343
664.436	0.0166827
664.514	0.0166990
664.592	0.0167321
664.670	0.0167921
664.748	0.0167240
664.826	0.0165784
664.905	0.0165745
664.983	0.0164117
665.061	0.0164487
665.139	0.0164008
665.217	0.0163881
665.295	0.0162892
665.373	0.0162137
665.451	0.0161420
665.530	0.0160278
665.608	0.0159233
665.686	0.0158974
665.764	0.0160542
665.842	0.0160317
665.920	0.0159770
665.998	0.0159827
666.076	0.0160271
666.155	0.0160680
666.233	0.0161233
666.311	0.0162036
666.389	0.0162749
666.467	0.0163529
666.545	0.0165531
666.623	0.0166947
666.701	0.0167044
666.780	0.0170004
666.858	0.0169604
666.936	0.0171483
667.014	0.0173169
667.092	0.0174132
667.170	0.0175999
667.248	0.0176419
667.326	0.0176540
667.405	0.0178745
667.483	0.0177892
667.561	0.0178248
667.639	0.0178186
667.717	0.0178566
667.795	0.0176789
667.873	0.0174920
667.951	0.0174333
668.030	0.0174165
668.108	0.0173948
668.186	0.0172887
668.264	0.0170486
668.342	0.0169378
668.420	0.0168476
668.498	0.0166769
668.576	0.0167255
668.655	0.0166148
668.733	0.0165350
668.811	0.0162546
668.889	0.0162745
668.967	0.0162148
669.045	0.0161545
669.123	0.0159262
669.201	0.0159230
669.280	0.0157315
669.358	0.0156525
669.436	0.0156609
669.514	0.0156724
669.592	0.0157377
669.670	0.0156514
669.748	0.0156230
669.826	0.0158376
669.905	0.0159471
669.983	0.0161974
670.061	0.0160785
670.139	0.0162658
670.217	0.0164413
670.295	0.0166615
670.373	0.0166843
670.451	0.0169810
670.530	0.0170595
670.608	0.0170779
670.686	0.0172021
670.764	0.0173927
670.842	0.0174393
670.920	0.0176268
670.998	0.0175530
671.076	0.0175455
671.155	0.0175455
671.233	0.0174828
671.311	0.0175466
671.389	0.0174763
671.467	0.0173721
671.545	0.0172791
671.623	0.0170721
671.701	0.0170279
671.780	0.0169723
671.858	0.0167625
671.936	0.0165583
672.014	0.0164505
672.092	0.0164205
672.170	0.0161166
672.248	0.0159283
672.326	0.0159068
672.405	0.0156899
672.483	0.0154123
672.561	0.0154549
672.639	0.0155174
672.717	0.0153387
672.795	0.0153761
672.873	0.0154425
672.951	0.0154530
673.030	0.0154470
673.108	0.0154224
673.186	0.0155818
673.264	0.0156165
673.342	0.0155840
673.420	0.0159599
673.498	0.0158451
673.576	0.0159350
673.655	0.0160883
673.733	0.0161443
673.811	0.0162857
673.889	0.0163370
673.967	0.0164323
674.045	0.0166641
674.123	0.0166750
674.201	0.0167049
674.280	0.0167019
674.358	0.0168744
674.436	0.0169215
674.514	0.0169176
674.592	0.0169234
674.670	0.0169109
674.748	0.0169882
674.826	0.0169551
674.905	0.0169916
674.983	0.0169009
675.061	0.0169655
675.139	0.0168713
675.217	0.0167245
675.295	0.0169121
675.373	0.0167522
675.451	0.0165864
675.530	0.0166853
675.608	0.0167175
675.686	0.0166129
675.764	0.0165642
675.842	0.0166300
675.920	0.0166021
675.998	0.0166354
676.076	0.0166997
676.155	0.0165911
676.233	0.0165572
676.311	0.0166233
676.389	0.0166022
676.467	0.0166345
676.545	0.0165043
676.623	0.0164981
676.701	0.0164325
676.780	0.0164771
676.858	0.0164518
676.936	0.0164250
677.014	0.0164722
677.092	0.0162843
677.170	0.0163953
677.248	0.0162848
677.326	0.0162722
677.405	0.0162106
677.483	0.0163815
677.561	0.0162607
677.639	0.0161653
677.717	0.0161456
677.795	0.0163789
677.873	0.0162626
677.951	0.0161814
678.030	0.0162035
678.108	0.0162274
678.186	0.0162720
678.264	0.0163885
678.342	0.0162972
678.420	0.0165673
678.498	0.0165755
678.576	0.0165423
678.655	0.0167767
678.733	0.0168867
678.811	0.0167429
678.889	0.0171590
678.967	0.0172260
679.045	0.0172044
679.123	0.0173993
679.201	0.0174536
679.280	0.0175008
679.358	0.0175046
679.436	0.0175201
679.514	0.0175694
679.592	0.0175755
679.670	0.0174893
679.748	0.0174843
679.826	0.0176558
679.905	0.0174819
679.983	0.0174228
680.061	0.0172605
680.139	0.0172426
680.217	0.0171369
680.295	0.0168404
680.373	0.0167924
680.451	0.0166148
680.530	0.0164382
680.608	0.0164184
680.686	0.0162824
680.764	0.0160532
680.842	0.0159348
680.920	0.0157877
680.998	0.0156698
681.076	0.0156741
681.155	0.0155172
681.233	0.0154357
681.311	0.0155901
681.389	0.0155804
681.467	0.0156532
681.545	0.0158483
681.623	0.0157901
681.701	0.0159424
681.780	0.0161301
681.858	0.0162185
681.936	0.0164606
682.014	0.0164338
682.092	0.0167828
682.170	0.0169860
682.248	0.0169541
682.326	0.0170953
682.405	0.0171525
682.483	0.0175507
682.561	0.0174742
682.639	0.0174073
682.717	0.0174419
682.795	0.0174711
682.873	0.0175420
682.951	0.0174901
683.030	0.0172870
683.108	0.0172809
683.186	0.0172369
683.264	0.0171896
683.342	0.0169947
683.420	0.0169293
683.498	0.0167506
683.576	0.0165941
683.655	0.0165511
683.733	0.0162281
683.811	0.0161663
683.889	0.0160747
683.967	0.0158804
684.045	0.0156924
684.123	0.0157112
684.201	0.0157878
684.280	0.0156171
684.358	0.0156754
684.436	0.0155575
684.514	0.0155807
684.592	0.0156044
684.670	0.0156527
684.748	0.0158166
684.826	0.0157594
684.905	0.0157243
684.983	0.0159908
685.061	0.0161865
685.139	0.0161193
685.217	0.0163171
685.295	0.0163735
685.373	0.0165238
685.451	0.0165515
685.530	0.0167194
685.608	0.0165877
685.686	0.0166805
685.764	0.0167903
685.842	0.0169289
685.920	0.0169318
685.998	0.0168478
686.076	0.0169911
686.155	0.0168754
686.233	0.0169886
686.311	0.0170192
686.389	0.0170157
686.467	0.0171113
686.545	0.0169759
686.623	0.0170374
686.701	0.0170377
686.780	0.0171806
686.858	0.0169765
686.936	0.0169975
687.014	0.0171889
687.092	0.0172056
687.170	0.0169861
687.248	0.0171131
687.326	0.0171201
687.405	0.0171511
687.483	0.0170313
687.561	0.0168716
687.639	0.0169555
687.717	0.0169385
687.795	0.0169244
687.873	0.0169091
687.951	0.0167992
688.030	0.0166479
688.108	0.0167060
688.186	0.0166482
688.264	0.0165154
688.342	0.0164153
688.420	0.0164211
688.498	0.0163921
688.576	0.0164004
688.655	0.0162288
688.733	0.0161555
688.811	0.0161424
688.889	0.0161406
688.967	0.0160713
689.045	0.0160680
689.123	0.0160715
689.201	0.0161739
689.280	0.0162386
689.358	0.0161739
689.436	0.0163566
689.514	0.0162637
689.592	0.0163018
689.670	0.0164365
689.748	0.0165937
689.826	0.0165799
689.905	0.0165627
689.983	0.0166607
690.061	0.0167205
690.139	0.0166334
690.217	0.0166109
690.295	0.0167854
690.373	0.0167829
690.451	0.0167977
690.530	0.0167606
690.608	0.0167891
690.686	0.0167731
690.764	0.0166982
690.842	0.0167036
690.920	0.0167188
690.998	0.0166857
691.076	0.0166360
691.155	0.0164444
691.233	0.0165546
691.311	0.0163032
691.389	0.0163352
691.467	0.0162266
691.545	0.0162107
691.623	0.0160403
691.701	0.0159517
691.780	0.0158557
691.858	0.0157859
691.936	0.0156914
692.014	0.0157108
692.092	0.0157708
692.170	0.0157169
692.248	0.0157047
692.326	0.0154782
692.405	0.0156462
692.483	0.0156281
692.561	0.0157854
692.639	0.0157887
692.717	0.0157784
692.795	0.0160411
692.873	0.0161212
692.951	0.0161392
693.030	0.0164335
693.108	0.0165668
693.186	0.0166721
693.264	0.0169210
693.342	0.0171184
693.420	0.0172153
693.498	0.0174073
693.576	0.0175598
693.655	0.0176017
693.733	0.0177805
693.811	0.0178722
693.889	0.0177421
693.967	0.0180010
694.045	0.0179991
694.123	0.0179243
694.201	0.0180394
694.280	0.0178473
694.358	0.0178078
694.436	0.0177058
694.514	0.0175667
694.592	0.0174465
694.670	0.0173333
694.748	0.0171581
694.826	0.0170306
694.905	0.0169073
694.983	0.0166842
695.061	0.0166946
695.139	0.0166080
695.217	0.0165058
695.295	0.0162903
695.373	0.0162288
695.451	0.0161992
695.530	0.0160441
695.608	0.0158562
695.686	0.0159769
695.764	0.0159654
695.842	0.0156414
695.920	0.0156462
695.998	0.0156268
696.076	0.0156113
696.155	0.0154931
696.233	0.0153902
696.311	0.0154948
696.389	0.0153992
696.467	0.0153475
696.545	0.0153207
696.623	0.0153689
696.701	0.0153664
696.780	0.0153616
696.858	0.0152845
696.936	0.0153654
697.014	0.0154255
697.092	0.0153961
697.170	0.0155527
697.248	0.0157762
697.326	0.0157869
697.405	0.0157976
697.483	0.0159818
697.561	0.0163078
697.639	0.0164651
697.717	0.0164905
697.795	0.0167251
697.873	0.0169875
697.951	0.0171630
698.030	0.0174370
698.108	0.0176891
698.186	0.0178302
698.264	0.0180832
698.342	0.0182001
698.420	0.0182580
698.498	0.0183904
698.576	0.0185278
698.655	0.0184337
698.733	0.0185085
698.811	0.0185555
698.889	0.0183201
698.967	0.0182691
699.045	0.0181994
699.123	0.0180288
699.201	0.0180010
699.280	0.0177961
699.358	0.0175597
699.436	0.0174507
699.514	0.0172015
699.592	0.0170989
699.670	0.0169801
699.748	0.0170208
699.826	0.0167941
699.905	0.0166589
699.983	0.0163692
700.061	0.0165455
700.139	0.0165178
700.217	0.0163306
700.295	0.0164830
700.373	0.0162037
700.451	0.0161962
700.530	0.0163909
700.608	0.0161987
700.686	0.0162897
700.764	0.0162616
700.842	0.0163715
700.920	0.0164549
700.998	0.0163380
701.076	0.0162694
701.155	0.0164188
701.233	0.0162169
701.311	0.0161334
701.389	0.0161620
701.467	0.0162279
701.545	0.0162211
701.623	0.0159528
701.701	0.0159954
701.780	0.0158601
701.858	0.0158703
701.936	0.0157268
702.014	0.0157827
702.092	0.0155320
702.170	0.0155943
702.248	0.0155518
702.326	0.0154079
702.405	0.0154684
702.483	0.0155085
702.561	0.0154832
702.639	0.0154118
702.717	0.0154165
702.795	0.0155309
702.873	0.0156337
702.951	0.0156790
703.030	0.0158176
703.108	0.0157739
703.186	0.0158637
703.264	0.0158514
703.342	0.0160304
703.420	0.0160662
703.498	0.0161323
703.576	0.0163068
703.655	0.0164452
703.733	0.0164053
703.811	0.0162885
703.889	0.0164590
703.967	0.0165957
704.045	0.0165221
704.123	0.0168016
704.201	0.0166341
704.280	0.0167158
704.358	0.0168185
704.436	0.0168730
704.514	0.0168082
704.592	0.0169592
704.670	0.0170592
704.748	0.0169747
704.826	0.0170034
704.905	0.0170868
704.983	0.0173300
705.061	0.0172348
705.139	0.0172961
705.217	0.0173230
705.295	0.0176163
705.373	0.0176013
705.451	0.0174883
705.530	0.0175861
705.608	0.0176270
705.686	0.0178640
705.764	0.0179018
705.842	0.0177215
705.920	0.0178920
705.998	0.0177855
706.076	0.0176681
706.155	0.0177376
706.233	0.0176109
706.311	0.0175191
706.389	0.0175940
706.467	0.0173642
706.545	0.0171015
706.623	0.0168746
706.701	0.0169324
706.780	0.0167503
706.858	0.0166022
706.936	0.0163337
707.014	0.0162501
707.092	0.0160835
707.170	0.0159508
707.248	0.0158981
707.326	0.0157500
707.405	0.0155785
707.483	0.0154690
707.561	0.0153051
707.639	0.0153271
707.717	0.0152248
707.795	0.0150400
707.873	0.0150893
707.951	0.0150386
708.030	0.0150336
708.108	0.0150298
708.186	0.0150330
708.264	0.0149573
708.342	0.0151622
708.420	0.0150991
708.498	0.0150549
708.576	0.0153574
708.655	0.0155821
708.733	0.0155538
708.811	0.0156773
708.889	0.0159114
708.967	0.0161369
709.045	0.0164221
709.123	0.0165556
709.201	0.0166452
709.280	0.0168269
709.358	0.0170193
709.436	0.0172769
709.514	0.0173566
709.592	0.0175028
709.670	0.0176134
709.748	0.0176659
709.826	0.0178395
709.905	0.0178297
709.983	0.0179878
710.061	0.0179030
710.139	0.0178557
710.217	0.0177389
710.295	0.0178906
710.373	0.0177055
710.451	0.0177227
710.530	0.0176298
710.608	0.0177190
710.686	0.0177274
710.764	0.0175404
710.842	0.0173969
710.920	0.0172260
710.998	0.0172760
711.076	0.0171378
711.155	0.0170578
711.233	0.0170238
711.311	0.0170260
711.389	0.0167572
711.467	0.0167062
711.545	0.0166718
711.623	0.0164645
711.701	0.0163422
711.780	0.0165221
711.858	0.0164029
711.936	0.0163619
712.014	0.0163344
712.092	0.0163151
712.170	0.0162949
712.248	0.0161951
712.326	0.0161331
712.405	0.0163047
712.483	0.0161803
712.561	0.0161133
712.639	0.0162310
712.717	0.0161933
712.795	0.0161835
712.873	0.0161231
712.951	0.0161676
713.030	0.0163363
713.108	0.0162752
713.186	0.0162688
713.264	0.0162733
713.342	0.0162697
713.420	0.0163686
713.498	0.0162734
713.576	0.0163224
713.655	0.0162904
713.733	0.0164661
713.811	0.0163300
713.889	0.0163825
713.967	0.0164582
714.045	0.0166349
714.123	0.0166331
714.201	0.0166357
714.280	0.0166687
714.358	0.0166057
714.436	0.0166158
714.514	0.0167621
714.592	0.0167026
714.670	0.0166697
714.748	0.0167238
714.826	0.0166057
714.905	0.0165713
714.983	0.0164706
715.061	0.0166153
715.139	0.0165160
715.217	0.0163812
715.295	0.0163438
715.373	0.0163116
715.451	0.0161932
715.530	0.0161850
715.608	0.0161655
715.686	0.0160495
715.764	0.0161204
715.842	0.0161409
715.920	0.0162033
715.998	0.0159690
716.076	0.0159579
716.155	0.0161025
716.233	0.0159947
716.311	0.0160950
716.389	0.0161076
716.467	0.0163235
716.545	0.0162298
716.623	0.0161649
716.701	0.0161974
716.780	0.0162656
716.858	0.0162823
716.936	0.0164979
717.014	0.0165569
717.092	0.0164683
717.170	0.0166503
717.248	0.0164553
717.326	0.0165775
717.405	0.0167497
717.483	0.0167284
717.561	0.0167735
717.639	0.0167965
717.717	0.0167524
717.795	0.0168610
717.873	0.0170061
717.951	0.0168464
718.030	0.0167979
718.108	0.0167838
718.186	0.0168975
718.264	0.0169579
718.342	0.0169249
718.420	0.0169599
718.498	0.0168244
718.576	0.0168256
718.655	0.0168011
718.733	0.0166786
718.811	0.0167165
718.889	0.0165739
718.967	0.0165010
719.045	0.0164695
719.123	0.0165209
719.201	0.0163374
719.280	0.0163053
719.358	0.0162624
719.436	0.0163123
719.514	0.0161053
719.592	0.0160850
719.670	0.0161270
719.748	0.0161304
719.826	0.0161414
719.905	0.0161899
719.983	0.0161604
720.061	0.0161187
720.139	0.0162436
720.217	0.0161889
720.295	0.0163430
720.373	0.0162008
720.451	0.0162901
720.530	0.0163924
720.608	0.0164726
720.686	0.0163360
720.764	0.0164232
720.842	0.0164253
720.920	0.0164865
720.998	0.0164111
721.076	0.0164311
721.155	0.0166376
721.233	0.0166140
721.311	0.0165904
721.389	0.0165729
721.467	0.0166444
721.545	0.0167775
721.623	0.0165343
721.701	0.0166733
721.780	0.0165818
721.858	0.0167286
721.936	0.0166293
722.014	0.0167589
722.092	0.0167124
722.170	0.0167038
722.248	0.0167214
722.326	0.0166967
722.405	0.0168020
722.483	0.0168455
722.561	0.0167803
722.639	0.0164991
722.717	0.0167307
722.795	0.0167652
722.873	0.0168744
722.951	0.0168594
723.030	0.0167735
723.108	0.0169325
723.186	0.0170229
723.264	0.0170420
723.342	0.0171951
723.420	0.0171628
723.498	0.0171214
723.576	0.0170723
723.655	0.0170867
723.733	0.0169803
723.811	0.0168758
723.889	0.0169347
723.967	0.0166245
724.045	0.0165001
724.123	0.0168039
724.201	0.0166409
724.280	0.0164735
724.358	0.0162859
724.436	0.0161784
724.514	0.0162151
724.592	0.0160708
724.670	0.0160205
724.748	0.0159801
724.826	0.0159346
724.905	0.0159796
724.983	0.0158976
725.061	0.0159354
725.139	0.0160543
725.217	0.0162032
725.295	0.0160985
725.373	0.0162769
725.451	0.0164159
725.530	0.0163493
725.608	0.0164207
725.686	0.0166615
725.764	0.0165821
725.842	0.0165075
725.920	0.0167012
725.998	0.0167504
726.076	0.0168163
726.155	0.0167169
726.233	0.0166164
726.311	0.0165941
726.389	0.0167066
726.467	0.0165249
726.545	0.0165917
726.623	0.0165884
726.701	0.0165483
726.780	0.0165073
726.858	0.0164459
726.936	0.0163441
727.014	0.0163117
727.092	0.0162631
727.170	0.0164386
727.248	0.0163258
727.326	0.0164164
727.405	0.0164071
727.483	0.0163978
727.561	0.0166395
727.639	0.0167133
727.717	0.0165921
727.795	0.0167131
727.873	0.0166553
727.951	0.0167400
728.030	0.0168005
728.108	0.0167963
728.186	0.0167440
728.264	0.0167645
728.342	0.0167133
728.420	0.0167096
728.498	0.0167055
728.576	0.0167391
728.655	0.0165589
728.733	0.0166924
728.811	0.0165239
728.889	0.0165182
728.967	0.0164221
729.045	0.0164676
729.123	0.0163653
729.201	0.0163377
729.280	0.0163771
729.358	0.0164425
729.436	0.0163585
729.514	0.0165158
729.592	0.0164916
729.670	0.0166327
729.748	0.0165344
729.826	0.0166143
729.905	0.0165422
729.983	0.0166297
730.061	0.0166571
730.139	0.0166614
730.217	0.0168472
730.295	0.0167123
730.373	0.0167019
730.451	0.0167530
730.530	0.0165936
730.608	0.0166495
730.686	0.0165630
730.764	0.0166112
730.842	0.0164730
730.920	0.0163587
730.998	0.0163828
731.076	0.0162553
731.155	0.0161793
731.233	0.0162204
731.311	0.0162249
731.389	0.0160383
731.467	0.0161888
731.545	0.0161387
731.623	0.0160488
731.701	0.0160089
731.780	0.0160497
731.858	0.0162508
731.936	0.0160825
732.014	0.0160385
732.092	0.0161942
732.170	0.0161777
732.248	0.0162077
732.326	0.0162054
732.405	0.0162779
732.483	0.0163751
732.561	0.0164379
732.639	0.0164466
732.717	0.0163644
732.795	0.0164594
732.873	0.0166106
732.951	0.0166636
733.030	0.0167263
733.108	0.0167854
733.186	0.0168156
733.264	0.0167168
733.342	0.0167585
733.420	0.0168118
733.498	0.0168034
733.576	0.0169566
733.655	0.0168059
733.733	0.0166770
733.811	0.0167372
733.889	0.0166922
733.967	0.0166535
734.045	0.0165683
734.123	0.0166005
734.201	0.0166332
734.280	0.0166494
734.358	0.0165945
734.436	0.0165430
734.514	0.0165158
734.592	0.0164893
734.670	0.0165303
734.748	0.0163919
734.826	0.0164562
734.905	0.0165947
734.983	0.0167318
735.061	0.0166515
735.139	0.0165324
735.217	0.0165890
735.295	0.0166635
735.373	0.0166096
735.451	0.0167377
735.530	0.0166514
735.608	0.0165768
735.686	0.0166066
735.764	0.0166677
735.842	0.0165311
735.920	0.0166098
735.998	0.0164467
736.076	0.0165043
736.155	0.0164146
736.233	0.0163186
736.311	0.0163999
736.389	0.0162413
736.467	0.0162482
736.545	0.0162561
736.623	0.0162491
736.701	0.0160867
736.780	0.0163470
736.858	0.0163551
736.936	0.0163554
737.014	0.0165030
737.092	0.0164003
737.170	0.0163800
737.248	0.0164371
737.326	0.0164598
737.405	0.0166080
737.483	0.0165547
737.561	0.0166510
737.639	0.0166029
737.717	0.0167085
737.795	0.0168719
737.873	0.0169086
737.951	0.0168240
738.030	0.0169493
738.108	0.0168395
738.186	0.0168719
738.264	0.0168584
738.342	0.0167101
738.420	0.0166534
738.498	0.0165881
738.576	0.0165823
738.655	0.0164867
738.733	0.0164694
738.811	0.0163686
738.889	0.0163022
738.967	0.0161684
739.045	0.0161330
739.123	0.0160737
739.201	0.0160310
739.280	0.0158389
739.358	0.0158790
739.436	0.0158174
739.514	0.0157159
739.592	0.0159324
739.670	0.0158304
739.748	0.0159506
739.826	0.0159931
739.905	0.0161642
739.983	0.0161887
740.061	0.0162182
740.139	0.0162613
740.217	0.0163961
740.295	0.0165174
740.373	0.0166293
740.451	0.0165470
740.530	0.0166423
740.608	0.0167040
740.686	0.0168046
740.764	0.0168432
740.842	0.0168942
740.920	0.0168758
740.998	0.0170937
741.076	0.0171471
741.155	0.0169926
741.233	0.0170469
741.311	0.0170720
741.389	0.0170339
741.467	0.0169571
741.545	0.0169369
741.623	0.0169051
741.701	0.0168523
741.780	0.0168076
741.858	0.0166586
741.936	0.0167024
742.014	0.0163815
742.092	0.0165012
742.170	0.0165752
742.248	0.0163975
742.326	0.0163738
742.405	0.0162975
742.483	0.0163325
742.561	0.0163790
742.639	0.0163330
742.717	0.0162158
742.795	0.0163470
742.873	0.0162785
742.951	0.0162798
743.030	0.0164388
743.108	0.0165446
743.186	0.0165614
743.264	0.0165949
743.342	0.0166637
743.420	0.0166499
743.498	0.0168141
743.576	0.0167326
743.655	0.0167307
743.733	0.0167847
743.811	0.0169521
743.889	0.0168053
743.967	0.0167033
744.045	0.0166912
744.123	0.0168564
744.201	0.0167870
744.280	0.0167167
744.358	0.0166381
744.436	0.0165536
744.514	0.0164854
744.592	0.0164250
744.670	0.0164319
744.748	0.0162157
744.826	0.0163399
744.905	0.0163694
744.983	0.0163557
745.061	0.0163260
745.139	0.0163827
745.217	0.0162217
745.295	0.0163885
745.373	0.0165601
745.451	0.0165738
745.530	0.0165591
745.608	0.0167676
745.686	0.0167536
745.764	0.0168807
745.842	0.0168636
745.920	0.0168172
745.998	0.0167786
746.076	0.0167809
746.155	0.0167178
746.233	0.0167129
746.311	0.0166032
746.389	0.0164124
746.467	0.0163297
746.545	0.0163139
746.623	0.0162177
746.701	0.0160032
746.780	0.0160252
746.858	0.0160077
746.936	0.0160119
747.014	0.0158923
747.092	0.0159813
747.170	0.0158533
747.248	0.0160524
747.326	0.0160869
747.405	0.0160335
747.483	0.0161417
747.561	0.0161816
747.639	0.0163262
747.717	0.0163535
747.795	0.0165018
747.873	0.0165242
747.951	0.0166895
748.030	0.0166198
748.108	0.0167979
748.186	0.0168526
748.264	0.0168962
748.342	0.0169732
748.420	0.0168677
748.498	0.0168429
748.576	0.0168796
748.655	0.0170068
748.733	0.0168527
748.811	0.0168776
748.889	0.0168946
748.967	0.0169165
749.045	0.0168577
749.123	0.0168948
749.201	0.0168450
749.280	0.0167338
749.358	0.0166597
749.436	0.0165789
749.514	0.0165714
749.592	0.0166124
749.670	0.0164684
749.748	0.0165109
749.826	0.0164941
749.905	0.0163644
749.983	0.0164181
750.061	0.0162983
750.139	0.0163924
750.217	0.0164193
750.295	0.0164303
750.373	0.0164897
750.451	0.0164115
750.530	0.0163094
750.608	0.0164687
750.686	0.0166873
750.764	0.0166811
750.842	0.0165872
750.920	0.0166251
750.998	0.0167490
751.076	0.0167825
751.155	0.0168681
751.233	0.0168388
751.311	0.0167733
751.389	0.0166690
751.467	0.0168947
751.545	0.0169407
751.623	0.0168336
751.701	0.0167276
751.780	0.0166196
751.858	0.0164198
751.936	0.0165146
752.014	0.0164389
752.092	0.0163005
752.170	0.0163297
752.248	0.0163295
752.326	0.0162099
752.405	0.0161238
752.483	0.0162252
752.561	0.0164161
752.639	0.0163138
752.717	0.0163342
752.795	0.0162941
752.873	0.0164890
752.951	0.0163961
753.030	0.0164820
753.108	0.0166598
753.186	0.0167292
753.264	0.0169788
753.342	0.0169502
753.420	0.0168901
753.498	0.0169982
753.576	0.0170450
753.655	0.0170101
753.733	0.0171421
753.811	0.0170049
753.889	0.0169807
753.967	0.0169066
754.045	0.0168417
754.123	0.0167007
754.201	0.0166400
754.280	0.0164967
754.358	0.0164126
754.436	0.0163955
754.514	0.0162826
754.592	0.0161643
754.670	0.0159574
754.748	0.0160316
754.826	0.0160405
754.905	0.0160329
754.983	0.0160511
755.061	0.0161089
755.139	0.0160899
755.217	0.0162176
755.295	0.0162479
755.373	0.0163654
755.451	0.0163827
755.530	0.0163557
755.608	0.0164216
755.686	0.0166183
755.764	0.0166766
755.842	0.0166564
755.920	0.0166664
755.998	0.0168922
756.076	0.0169128
756.155	0.0166888
756.233	0.0169106
756.311	0.0169713
756.389	0.0168829
756.467	0.0169090
756.545	0.0167970
756.623	0.0167567
756.701	0.0167591
756.780	0.0167316
756.858	0.0166249
756.936	0.0166699
757.014	0.0166277
757.092	0.0164729
757.170	0.0165095
757.248	0.0165257
757.326	0.0164894
757.405	0.0165105
757.483	0.0164484
757.561	0.0163555
757.639	0.0165569
757.717	0.0165274
757.795	0.0166512
757.873	0.0165236
757.951	0.0163487
758.030	0.0164199
758.108	0.0165117
758.186	0.0164844
758.264	0.0165417
758.342	0.0164828
758.420	0.0165334
758.498	0.0165118
758.576	0.0166043
758.655	0.0165278
758.733	0.0166643
758.811	0.0166725
758.889	0.0166844
758.967	0.0168492
759.045	0.0167117
759.123	0.0167184
759.201	0.0167713
759.280	0.0167967
759.358	0.0168566
759.436	0.0168205
759.514	0.0167798
759.592	0.0167950
759.670	0.0166985
759.748	0.0166520
759.826	0.0165409
759.905	0.0164925
759.983	0.0163802
760.061	0.0163871
760.139	0.0163122
760.217	0.0162851
760.295	0.0162382
760.373	0.0161282
760.451	0.0162112
760.530	0.0161197
760.608	0.0161784
760.686	0.0162984
760.764	0.0162955
760.842	0.0164625
760.920	0.0166102
760.998	0.0166708
761.076	0.0167099
761.155	0.0168498
761.233	0.0168561
761.311	0.0170280
761.389	0.0169586
761.467	0.0170991
761.545	0.0170721
761.623	0.0169846
761.701	0.0170002
761.780	0.0169553
761.858	0.0168837
761.936	0.0168843
762.014	0.0168804
762.092	0.0166599
762.170	0.0166982
762.248	0.0165454
762.326	0.0165617
762.405	0.0164632
762.483	0.0164410
762.561	0.0163974
762.639	0.0164776
762.717	0.0163107
762.795	0.0162498
762.873	0.0163546
762.951	0.0164111
763.030	0.0163262
763.108	0.0163004
763.186	0.0163481
763.264	0.0164381
763.342	0.0165274
763.420	0.0166317
763.498	0.0166943
763.576	0.0166075
763.655	0.0166632
763.733	0.0167923
763.811	0.0167603
763.889	0.0168031
763.967	0.0167335
764.045	0.0166791
764.123	0.0165852
764.201	0.0166599
764.280	0.0165829
764.358	0.0166406
764.436	0.0167302
764.514	0.0165873
764.592	0.0165684
764.670	0.0165851
764.748	0.0165089
764.826	0.0164225
764.905	0.0165070
764.983	0.0164636
765.061	0.0166488
765.139	0.0165282
765.217	0.0164993
765.295	0.0164894
765.373	0.0164481
765.451	0.0163730
765.530	0.0163773
765.608	0.0165119
765.686	0.0164727
765.764	0.0164420
765.842	0.0164584
765.920	0.0165384
765.998	0.0163921
766.076	0.0163814
766.155	0.0163550
766.233	0.0166040
766.311	0.0165216
766.389	0.0165025
766.467	0.0165977
766.545	0.0166547
766.623	0.0166486
766.701	0.0166237
766.780	0.0167219
766.858	0.0167210
766.936	0.0166811
767.014	0.0168993
767.092	0.0166690
767.170	0.0167509
767.248	0.0166943
767.326	0.0167172
767.405	0.0168356
767.483	0.0166523
767.561	0.0167390
767.639	0.0166789
767.717	0.0165437
767.795	0.0166850
767.873	0.0164790
767.951	0.0164287
768.030	0.0163446
768.108	0.0163187
768.186	0.0163085
768.264	0.0160890
768.342	0.0163039
768.420	0.0162798
768.498	0.0161558
768.576	0.0161732
768.655	0.0161236
768.733	0.0163514
768.811	0.0163107
768.889	0.0162118
768.967	0.0162660
769.045	0.0163241
769.123	0.0164046
769.201	0.0164243
769.280	0.0164453
769.358	0.0165273
769.436	0.0165097
769.514	0.0164534
769.592	0.0163672
769.670	0.0165007
769.748	0.0164648
769.826	0.0164780
769.905	0.0165439
769.983	0.0165488
770.061	0.0164191
770.139	0.0164160
770.217	0.0164240
770.295	0.0162780
770.373	0.0162502
770.451	0.0163065
770.530	0.0163064
770.608	0.0162319
770.686	0.0161174
770.764	0.0162916
770.842	0.0162108
770.920	0.0162184
770.998	0.0163407
771.076	0.0164704
771.155	0.0165608
771.233	0.0164800
771.311	0.0164489
771.389	0.0166047
771.467	0.0165562
771.545	0.0166811
771.623	0.0167620
771.701	0.0166563
771.780	0.0167133
771.858	0.0167115
771.936	0.0166827
772.014	0.0166407
772.092	0.0167048
772.170	0.0166967
772.248	0.0165399
772.326	0.0165969
772.405	0.0167214
772.483	0.0164713
772.561	0.0166408
772.639	0.0167685
772.717	0.0166351
772.795	0.0164632
772.873	0.0165130
772.951	0.0165438
773.030	0.0163096
773.108	0.0164084
773.186	0.0165260
773.264	0.0165340
773.342	0.0165223
773.420	0.0164284
773.498	0.0164902
773.576	0.0164032
773.655	0.0164857
773.733	0.0166676
773.811	0.0165345
773.889	0.0165131
773.967	0.0165473
774.045	0.0166282
774.123	0.0166875
774.201	0.0166585
774.280	0.0165816
774.358	0.0165890
774.436	0.0166723
774.514	0.0166645
774.592	0.0165450
774.670	0.0167363
774.748	0.0166602
774.826	0.0166963
774.905	0.0166990
774.983	0.0166282
775.061	0.0166969
775.139	0.0167197
775.217	0.0166494
775.295	0.0165903
775.373	0.0165612
775.451	0.0163857
775.530	0.0166472
775.608	0.0165325
775.686	0.0164134
775.764	0.0163135
775.842	0.0164509
775.920	0.0163058
775.998	0.0163767
776.076	0.0162530
776.155	0.0164313
776.233	0.0165376
776.311	0.0165481
776.389	0.0164275
776.467	0.0165231
776.545	0.0165688
776.623	0.0164820
776.701	0.0166118
776.780	0.0166977
776.858	0.0167207
776.936	0.0167174
777.014	0.0167970
777.092	0.0167695
777.170	0.0166591
777.248	0.0167582
777.326	0.0168074
777.405	0.0166876
777.483	0.0165379
777.561	0.0164264
777.639	0.0164783
777.717	0.0163894
777.795	0.0162267
777.873	0.0162255
777.951	0.0162981
778.030	0.0163717
778.108	0.0162596
778.186	0.0162505
778.264	0.0164663
778.342	0.0162365
778.420	0.0163673
778.498	0.0164826
778.576	0.0163936
778.655	0.0164693
778.733	0.0164546
778.811	0.0166050
778.889	0.0166854
778.967	0.0165691
779.045	0.0167151
779.123	0.0166051
779.201	0.0167619
779.280	0.0168430
779.358	0.0167410
779.436	0.0166476
779.514	0.0166589
779.592	0.0166400
779.670	0.0166818
779.748	0.0168244
779.826	0.0167609
779.905	0.0166286
779.983	0.0165571
780.061	0.0166689
780.139	0.0166312
780.217	0.0166100
780.295	0.0165314
780.373	0.0165688
780.451	0.0166092
780.530	0.0165686
780.608	0.0165395
780.686	0.0164818
780.764	0.0164042
780.842	0.0164187
780.920	0.0164457
780.998	0.0163725
781.076	0.0163851
781.155	0.0164301
781.233	0.0164133
781.311	0.0164185
781.389	0.0164811
781.467	0.0164967
781.545	0.0166991
781.623	0.0167195
781.701	0.0165467
781.780	0.0167107
781.858	0.0166396
781.936	0.0166470
782.014	0.0166254
782.092	0.0167846
782.170	0.0167471
782.248	0.0167659
782.326	0.0168775
782.405	0.0167850
782.483	0.0168040
782.561	0.0167149
782.639	0.0167390
782.717	0.0166815
782.795	0.0168101
782.873	0.0166190
782.951	0.0167466
783.030	0.0166706
783.108	0.0165907
783.186	0.0166638
783.264	0.0166434
783.342	0.0165186
783.420	0.0165607
783.498	0.0164014
783.576	0.0163908
783.655	0.0165090
783.733	0.0163853
783.811	0.0164212
783.889	0.0164317
783.967	0.0164157
784.045	0.0165620
784.123	0.0165142
784.201	0.0164917
784.280	0.0166086
784.358	0.0165592
784.436	0.0164495
784.514	0.0167418
784.592	0.0166431
784.670	0.0167035
784.748	0.0167052
784.826	0.0166551
784.905	0.0166895
784.983	0.0169845
785.061	0.0166915
785.139	0.0166347
785.217	0.0167527
785.295	0.0165219
785.373	0.0166728
785.451	0.0166975
785.530	0.0165276
785.608	0.0165990
785.686	0.0165704
785.764	0.0163240
785.842	0.0164925
785.920	0.0164128
785.998	0.0164579
786.076	0.0163194
786.155	0.0163438
786.233	0.0164375
786.311	0.0165032
786.389	0.0165582
786.467	0.0163772
786.545	0.0164640
786.623	0.0166367
786.701	0.0165829
786.780	0.0165530
786.858	0.0166171
786.936	0.0166642
787.014	0.0165366
787.092	0.0166969
787.170	0.0166107
787.248	0.0166110
787.326	0.0165972
787.405	0.0167752
787.483	0.0165279
787.561	0.0165939
787.639	0.0167049
787.717	0.0166041
787.795	0.0167451
787.873	0.0166053
787.951	0.0165896
788.030	0.0167081
788.108	0.0166115
788.186	0.0165037
788.264	0.0165257
788.342	0.0164783
788.420	0.0166358
788.498	0.0166357
788.576	0.0165565
788.655	0.0164207
788.733	0.0164768
788.811	0.0166044
788.889	0.0165670
788.967	0.0165146
789.045	0.0164980
789.123	0.0165242
789.201	0.0165456
789.280	0.0166182
789.358	0.0165440
789.436	0.0165970
789.514	0.0166792
789.592	0.0166739
789.670	0.0166085
789.748	0.0166536
789.826	0.0168616
789.905	0.0168316
789.983	0.0166702
790.061	0.0168479
790.139	0.0168619
790.217	0.0168549
790.295	0.0168341
790.373	0.0170192
790.451	0.0170707
790.530	0.0168907
790.608	0.0169701
790.686	0.0170411
790.764	0.0168668
790.842	0.0169731
790.920	0.0169093
790.998	0.0168195
791.076	0.0167832
791.155	0.0167883
791.233	0.0167096
791.311	0.0165774
791.389	0.0166010
791.467	0.0166323
791.545	0.0165569
791.623	0.0164124
791.701	0.0164481
791.780	0.0164091
791.858	0.0164791
791.936	0.0164731
792.014	0.0163750
792.092	0.0164997
792.170	0.0164503
792.248	0.0164844
792.326	0.0165026
792.405	0.0164375
792.483	0.0165391
792.561	0.0165242
792.639	0.0163896
792.717	0.0165569
792.795	0.0163848
792.873	0.0164045
792.951	0.0164110
793.030	0.0163604
793.108	0.0162427
793.186	0.0163072
793.264	0.0163377
793.342	0.0163274
793.420	0.0162888
793.498	0.0160353
793.576	0.0161158
793.655	0.0162708
793.733	0.0161345
793.811	0.0160954
793.889	0.0162295
793.967	0.0161267
794.045	0.0161145
794.123	0.0163169
794.201	0.0162726
794.280	0.0162689
794.358	0.0165030
794.436	0.0164649
794.514	0.0165677
794.592	0.0166035
794.670	0.0166486
794.748	0.0166599
794.826	0.0167161
794.905	0.0168401
794.983	0.0167866
795.061	0.0168248
795.139	0.0168591
795.217	0.0167461
795.295	0.0168958
795.373	0.0166567
795.451	0.0168758
795.530	0.0168138
795.608	0.0167191
795.686	0.0166563
795.764	0.0166651
795.842	0.0167771
795.920	0.0165785
795.998	0.0164387
796.076	0.0164516
796.155	0.0165360
796.233	0.0166010
796.311	0.0164598
796.389	0.0164667
796.467	0.0164751
796.545	0.0164259
796.623	0.0164458
796.701	0.0164378
796.780	0.0164816
796.858	0.0164526
796.936	0.0164852
797.014	0.0163631
797.092	0.0164307
797.170	0.0164449
797.248	0.0163757
797.326	0.0162477
797.405	0.0163177
797.483	0.0164114
797.561	0.0164106
797.639	0.0164370
797.717	0.0163490
797.795	0.0163389
797.873	0.0163570
797.951	0.0164282
798.030	0.0163137
798.108	0.0164544
798.186	0.0164587
798.264	0.0163667
798.342	0.0163571
798.420	0.0163686
798.498	0.0164113
798.576	0.0163196
798.655	0.0164204
798.733	0.0163730
798.811	0.0163195
798.889	0.0162606
798.967	0.0162579
799.045	0.0164224
799.123	0.0164504
799.201	0.0161539
799.280	0.0161954
799.358	0.0163260
799.436	0.0161073
799.514	0.0163314
799.592	0.0162175
799.670	0.0161066
799.748	0.0160640
799.826	0.0162688
799.905	0.0161935
799.983	0.0162521
800.061	0.0161655
800.139	0.0162077
800.217	0.0162637
800.295	0.0164137
800.373	0.0164231
800.451	0.0163000
800.530	0.0165057
800.608	0.0165852
800.686	0.0165903
800.764	0.0165836
800.842	0.0165706
800.920	0.0166516
800.998	0.0166310
801.076	0.0167010
801.155	0.0166295
801.233	0.0166908
801.311	0.0166662
801.389	0.0166676
801.467	0.0166650
801.545	0.0166899
801.623	0.0168362
801.701	0.0167822
801.780	0.0167638
801.858	0.0167955
801.936	0.0167654
802.014	0.0169639
802.092	0.0167448
802.170	0.0167964
802.248	0.0168507
802.326	0.0169619
802.405	0.0169637
802.483	0.0169303
802.561	0.0170502
802.639	0.0170369
802.717	0.0170895
802.795	0.0168465
802.873	0.0169010
802.951	0.0169512
803.030	0.0169038
803.108	0.0168853
803.186	0.0168536
803.264	0.0166815
803.342	0.0167603
803.420	0.0165463
803.498	0.0166447
803.576	0.0166492
803.655	0.0164785
803.733	0.0163731
803.811	0.0163346
803.889	0.0163866
803.967	0.0162711
804.045	0.0160523
804.123	0.0160888
804.201	0.0161887
804.280	0.0161607
804.358	0.0160151
804.436	0.0159573
804.514	0.0160809
804.592	0.0161063
804.670	0.0158743
804.748	0.0161333
804.826	0.0162719
804.905	0.0161623
804.983	0.0162182
805.061	0.0162326
805.139	0.0161509
805.217	0.0162779
805.295	0.0163611
805.373	0.0163084
805.451	0.0162395
805.530	0.0164594
805.608	0.0165508
805.686	0.0165641
805.764	0.0165500
805.842	0.0166611
805.920	0.0166634
805.998	0.0168675
806.076	0.0169028
806.155	0.0168389
806.233	0.0169375
806.311	0.0169224
806.389	0.0170583
806.467	0.0171137
806.545	0.0172091
806.623	0.0172312
806.701	0.0171473
806.780	0.0172312
806.858	0.0170400
806.936	0.0170380
807.014	0.0169643
807.092	0.0170926
807.170	0.0170149
807.248	0.0169690
807.326	0.0169041
807.405	0.0167663
807.483	0.0167650
807.561	0.0166464
807.639	0.0166030
807.717	0.0165557
807.795	0.0163849
807.873	0.0163256
807.951	0.0163599
808.030	0.0163858
808.108	0.0164390
808.186	0.0163160
808.264	0.0163721
808.342	0.0162259
808.420	0.0164043
808.498	0.0163583
808.576	0.0163084
808.655	0.0164862
808.733	0.0164377
808.811	0.0165272
808.889	0.0164298
808.967	0.0164266
809.045	0.0164208
809.123	0.0164835
809.201	0.0165470
809.280	0.0165038
809.358	0.0164181
809.436	0.0162341
809.514	0.0163851
809.592	0.0163808
809.670	0.0164372
809.748	0.0162873
809.826	0.0162435
809.905	0.0163147
809.983	0.0164614
810.061	0.0163073
810.139	0.0164692
810.217	0.0164661
810.295	0.0163548
810.373	0.0164948
810.451	0.0164920
810.530	0.0164876
810.608	0.0165570
810.686	0.0165266
810.764	0.0167224
810.842	0.0167847
810.920	0.0166919
810.998	0.0167490
811.076	0.0168689
811.155	0.0168013
811.233	0.0168618
811.311	0.0169153
811.389	0.0169080
811.467	0.0169064
811.545	0.0168822
811.623	0.0167483
811.701	0.0167760
811.780	0.0167722
811.858	0.0167641
811.936	0.0167739
812.014	0.0166158
812.092	0.0166961
812.170	0.0166359
812.248	0.0166488
812.326	0.0165446
812.405	0.0164426
812.483	0.0165102
812.561	0.0163823
812.639	0.0166125
812.717	0.0165703
812.795	0.0166052
812.873	0.0165416
812.951	0.0165869
813.030	0.0163923
813.108	0.0165884
813.186	0.0165583
813.264	0.0165410
813.342	0.0166672
813.420	0.0167070
813.498	0.0166216
813.576	0.0165996
813.655	0.0166000
813.733	0.0167333
813.811	0.0166753
813.889	0.0166412
813.967	0.0166285
814.045	0.0166761
814.123	0.0167126
814.201	0.0166601
814.280	0.0167008
814.358	0.0166290
814.436	0.0166151
814.514	0.0166600
814.592	0.0168185
814.670	0.0166379
814.748	0.0166177
814.826	0.0168224
814.905	0.0167629
814.983	0.0166605
815.061	0.0166210
815.139	0.0166340
815.217	0.0165685
815.295	0.0166221
815.373	0.0166932
815.451	0.0166261
815.530	0.0165743
815.608	0.0164429
815.686	0.0164050
815.764	0.0163840
815.842	0.0164314
815.920	0.0162620
815.998	0.0163714
816.076	0.0162666
816.155	0.0162011
816.233	0.0162034
816.311	0.0162132
816.389	0.0163108
816.467	0.0163926
816.545	0.0165266
816.623	0.0164609
816.701	0.0165027
816.780	0.0164242
816.858	0.0162820
816.936	0.0164667
817.014	0.0164037
817.092	0.0163946
817.170	0.0164119
817.248	0.0164886
817.326	0.0164185
817.405	0.0164174
817.483	0.0165724
817.561	0.0164719
817.639	0.0164750
817.717	0.0164718
817.795	0.0162769
817.873	0.0163926
817.951	0.0165046
818.030	0.0165723
818.108	0.0165340
818.186	0.0166232
818.264	0.0166280
818.342	0.0166036
818.420	0.0164750
818.498	0.0165980
818.576	0.0165482
818.655	0.0165998
818.733	0.0165305
818.811	0.0166767
818.889	0.0166703
818.967	0.0166912
819.045	0.0166015
819.123	0.0167596
819.201	0.0167920
819.280	0.0167204
819.358	0.0167429
819.436	0.0167422
819.514	0.0168266
819.592	0.0167189
819.670	0.0166152
819.748	0.0166781
819.826	0.0167735
819.905	0.0167625
819.983	0.0167957
820.061	0.0168021
820.139	0.0167400
820.217	0.0166681
820.295	0.0165257
820.373	0.0165771
820.451	0.0166136
820.530	0.0166518
820.608	0.0165703
820.686	0.0166753
820.764	0.0166191
820.842	0.0165849
820.920	0.0166297
820.998	0.0165108
821.076	0.0164251
821.155	0.0165170
821.233	0.0164703
821.311	0.0167413
821.389	0.0166177
821.467	0.0165794
821.545	0.0166870
821.623	0.0168076
821.701	0.0168460
821.780	0.0168800
821.858	0.0166882
821.936	0.0166823
822.014	0.0167586
822.092	0.0168513
822.170	0.0168060
822.248	0.0167410
822.326	0.0168291
822.405	0.0167632
822.483	0.0166281
822.561	0.0166978
822.639	0.0167149
822.717	0.0166273
822.795	0.0167431
822.873	0.0167246
822.951	0.0165376
823.030	0.0165304
823.108	0.0167472
823.186	0.0167606
823.264	0.0166631
823.342	0.0166830
823.420	0.0167877
823.498	0.0167699
823.576	0.0167143
823.655	0.0167813
823.733	0.0166518
823.811	0.0166640
823.889	0.0165996
823.967	0.0166084
824.045	0.0165031
824.123	0.0166489
824.201	0.0165982
824.280	0.0165627
824.358	0.0164563
824.436	0.0165636
824.514	0.0165991
824.592	0.0164690
824.670	0.0164267
824.748	0.0163830
824.826	0.0163559
824.905	0.0164854
824.983	0.0164732
825.061	0.0164516
825.139	0.0162901
825.217	0.0164603
825.295	0.0164993
825.373	0.0163693
825.451	0.0165804
825.530	0.0165914
825.608	0.0165057
825.686	0.0164600
825.764	0.0163383
825.842	0.0164655
825.920	0.0165220
825.998	0.0164338
826.076	0.0164433
826.155	0.0164127
826.233	0.0164123
826.311	0.0164295
826.389	0.0163906
826.467	0.0164471
826.545	0.0164891
826.623	0.0165276
826.701	0.0164004
826.780	0.0165070
826.858	0.0165613
826.936	0.0164963
827.014	0.0165363
827.092	0.0165605
827.170	0.0164196
827.248	0.0164164
827.326	0.0164501
827.405	0.0164613
827.483	0.0165171
827.561	0.0164742
827.639	0.0164598
827.717	0.0164520
827.795	0.0163643
827.873	0.0164376
827.951	0.0164240
828.030	0.0163861
828.108	0.0164123
828.186	0.0163876
828.264	0.0165246
828.342	0.0164198
828.420	0.0164408
828.498	0.0163034
828.576	0.0163480
828.655	0.0162186
828.733	0.0163662
828.811	0.0162453
828.889	0.0163390
828.967	0.0162344
829.045	0.0162460
829.123	0.0163177
829.201	0.0163608
829.280	0.0163927
829.358	0.0163524
829.436	0.0163895
829.514	0.0163377
829.592	0.0162699
829.670	0.0164697
829.748	0.0164583
829.826	0.0164859
829.905	0.0165039
829.983	0.0164611
830.061	0.0164918
830.139	0.0163680
830.217	0.0164189
830.295	0.0165055
830.373	0.0164101
830.451	0.0163509
830.530	0.0163976
830.608	0.0165726
830.686	0.0165035
830.764	0.0162055
830.842	0.0164144
830.920	0.0164540
830.998	0.0163869
831.076	0.0164589
831.155	0.0164713
831.233	0.0164967
831.311	0.0165936
831.389	0.0166257
831.467	0.0164514
831.545	0.0163996
831.623	0.0165143
831.701	0.0164732
831.780	0.0163757
831.858	0.0165110
831.936	0.0164943
832.014	0.0165434
832.092	0.0166123
832.170	0.0165102
832.248	0.0164664
832.326	0.0165890
832.405	0.0166717
832.483	0.0166080
832.561	0.0165371
832.639	0.0165850
832.717	0.0165646
832.795	0.0165017
832.873	0.0165810
832.951	0.0165766
833.030	0.0166000
833.108	0.0164774
833.186	0.0166513
833.264	0.0165674
833.342	0.0165302
833.420	0.0164173
833.498	0.0164860
833.576	0.0165681
833.655	0.0164622
833.733	0.0165218
833.811	0.0163943
833.889	0.0165497
833.967	0.0164838
834.045	0.0164605
834.123	0.0164653
834.201	0.0163924
834.280	0.0164224
834.358	0.0164365
834.436	0.0164339
834.514	0.0164234
834.592	0.0164655
834.670	0.0164904
834.748	0.0165356
834.826	0.0164774
834.905	0.0164332
834.983	0.0164694
835.061	0.0164386
835.139	0.0165892
835.217	0.0166110
835.295	0.0165462
835.373	0.0165063
835.451	0.0165997
835.530	0.0166505
835.608	0.0165953
835.686	0.0165005
835.764	0.0166389
835.842	0.0166586
835.920	0.0166322
835.998	0.0164307
836.076	0.0164068
836.155	0.0164621
836.233	0.0164693
836.311	0.0164690
836.389	0.0164167
836.467	0.0165580
836.545	0.0164259
836.623	0.0164388
836.701	0.0165916
836.780	0.0165197
836.858	0.0165639
836.936	0.0164793
837.014	0.0165241
837.092	0.0166119
837.170	0.0167065
837.248	0.0164534
837.326	0.0165336
837.405	0.0167138
837.483	0.0165215
837.561	0.0165648
837.639	0.0166055
837.717	0.0166762
837.795	0.0167665
837.873	0.0167336
837.951	0.0167065
838.030	0.0165871
838.108	0.0165588
838.186	0.0166664
838.264	0.0166163
838.342	0.0167272
838.420	0.0167998
838.498	0.0167374
838.576	0.0166708
838.655	0.0167609
838.733	0.0166697
838.811	0.0165714
838.889	0.0167604
838.967	0.0166777
839.045	0.0165229
839.123	0.0164687
839.201	0.0165562
839.280	0.0165926
839.358	0.0164285
839.436	0.0164477
839.514	0.0165803
839.592	0.0164986
839.670	0.0164951
839.748	0.0165167
839.826	0.0164183
839.905	0.0164803
839.983	0.0163966
840.061	0.0165358
840.139	0.0164105
840.217	0.0165215
840.295	0.0164411
840.373	0.0164095
840.451	0.0164606
840.530	0.0164429
840.608	0.0165474
840.686	0.0163479
840.764	0.0164026
840.842	0.0165874
840.920	0.0165448
840.998	0.0165732
841.076	0.0165723
841.155	0.0165278
841.233	0.0166010
841.311	0.0167177
841.389	0.0166256
841.467	0.0166778
841.545	0.0167210
841.623	0.0167249
841.701	0.0167998
841.780	0.0168528
841.858	0.0167744
841.936	0.0169355
842.014	0.0169014
842.092	0.0169050
842.170	0.0169431
842.248	0.0169823
842.326	0.0169269
842.405	0.0168085
842.483	0.0167877
842.561	0.0167867
842.639	0.0168765
842.717	0.0166154
842.795	0.0166000
842.873	0.0165064
842.951	0.0164925
843.030	0.0163177
843.108	0.0162940
843.186	0.0162373
843.264	0.0164330
843.342	0.0163652
843.420	0.0165317
843.498	0.0165203
843.576	0.0165958
843.655	0.0165115
843.733	0.0165399
843.811	0.0166135
843.889	0.0166682
843.967	0.0167699
844.045	0.0166817
844.123	0.0166673
844.201	0.0166910
844.280	0.0166556
844.358	0.0167674
844.436	0.0165969
844.514	0.0166079
844.592	0.0165504
844.670	0.0165344
844.748	0.0164471
844.826	0.0163348
844.905	0.0163639
844.983	0.0163820
845.061	0.0164595
845.139	0.0164661
845.217	0.0164900
845.295	0.0165310
845.373	0.0163543
845.451	0.0165189
845.530	0.0165208
845.608	0.0166166
845.686	0.0163933
845.764	0.0164322
845.842	0.0164928
845.920	0.0165839
845.998	0.0165435
846.076	0.0164947
846.155	0.0165751
846.233	0.0164751
846.311	0.0165029
846.389	0.0165469
846.467	0.0166094
846.545	0.0165842
846.623	0.0166059
846.701	0.0165640
846.780	0.0166378
846.858	0.0168002
846.936	0.0168277
847.014	0.0166618
847.092	0.0165697
847.170	0.0168396
847.248	0.0167332
847.326	0.0166262
847.405	0.0166580
847.483	0.0167773
847.561	0.0166110
847.639	0.0165641
847.717	0.0165434
847.795	0.0165004
847.873	0.0165082
847.951	0.0164970
848.030	0.0165459
848.108	0.0165092
848.186	0.0165160
848.264	0.0164573
848.342	0.0165155
848.420	0.0166508
848.498	0.0165455
848.576	0.0164449
848.655	0.0164532
848.733	0.0165505
848.811	0.0165406
848.889	0.0164690
848.967	0.0164652
849.045	0.0164742
849.123	0.0165487
849.201	0.0165232
849.280	0.0165883
849.358	0.0166692
849.436	0.0166244
849.514	0.0165336
849.592	0.0164462
849.670	0.0166043
849.748	0.0164944
849.826	0.0165539
849.905	0.0164310
849.983	0.0165184
850.061	0.0165819
850.139	0.0165379
850.217	0.0165493
850.295	0.0164766
850.373	0.0163622
850.451	0.0165175
850.530	0.0165887
850.608	0.0165245
850.686	0.0163914
850.764	0.0165545
850.842	0.0166083
850.920	0.0165244
850.998	0.0164674
851.076	0.0165453
851.155	0.0167090
851.233	0.0165719
851.311	0.0166658
851.389	0.0163470
851.467	0.0164788
851.545	0.0166740
851.623	0.0165208
851.701	0.0166430
851.780	0.0164129
851.858	0.0164525
851.936	0.0166142
852.014	0.0165140
852.092	0.0166087
852.170	0.0165940
852.248	0.0164923
852.326	0.0165222
852.405	0.0164908
852.483	0.0165012
852.561	0.0166113
852.639	0.0164176
852.717	0.0163993
852.795	0.0164410
852.873	0.0165734
852.951	0.0164062
853.030	0.0164367
853.108	0.0166010
853.186	0.0165747
853.264	0.0165378
853.342	0.0166393
853.420	0.0167316
853.498	0.0167874
853.576	0.0166687
853.655	0.0166351
853.733	0.0165622
853.811	0.0165675
853.889	0.0166028
853.967	0.0164983
854.045	0.0166821
854.123	0.0167300
854.201	0.0166666
854.280	0.0166504
854.358	0.0165173
854.436	0.0166685
854.514	0.0166736
854.592	0.0165929
854.670	0.0165702
854.748	0.0165842
854.826	0.0165865
854.905	0.0167290
854.983	0.0166937
855.061	0.0167022
855.139	0.0166707
855.217	0.0166349
855.295	0.0165803
855.373	0.0165553
855.451	0.0166058
855.530	0.0163914
855.608	0.0165416
855.686	0.0165231
855.764	0.0167214
855.842	0.0165893
855.920	0.0165534
855.998	0.0165983
856.076	0.0164810
856.155	0.0165488
856.233	0.0165722
856.311	0.0165649
856.389	0.0165189
856.467	0.0166516
856.545	0.0164346
856.623	0.0163308
856.701	0.0164046
856.780	0.0163365
856.858	0.0163390
856.936	0.0164169
857.014	0.0163461
857.092	0.0164269
857.170	0.0163405
857.248	0.0163974
857.326	0.0163843
857.405	0.0162703
857.483	0.0163048
857.561	0.0164848
857.639	0.0165988
857.717	0.0165291
857.795	0.0165311
857.873	0.0166261
857.951	0.0165824
858.030	0.0165584
858.108	0.0167198
858.186	0.0165508
858.264	0.0164420
858.342	0.0165778
858.420	0.0165011
858.498	0.0166262
858.576	0.0165488
858.655	0.0166097
858.733	0.0165946
858.811	0.0165919
858.889	0.0167178
858.967	0.0165961
859.045	0.0165598
859.123	0.0164800
859.201	0.0165455
859.280	0.0166713
859.358	0.0165795
859.436	0.0164350
859.514	0.0164391
859.592	0.0164442
859.670	0.0164809
859.748	0.0164488
859.826	0.0164738
859.905	0.0164598
859.983	0.0162884
860.061	0.0164022
860.139	0.0163798
860.217	0.0164517
860.295	0.0164478
860.373	0.0162209
860.451	0.0164661
860.530	0.0164728
860.608	0.0164182
860.686	0.0164861
860.764	0.0163297
860.842	0.0163280
860.920	0.0163290
860.998	0.0163500
861.076	0.0163881
861.155	0.0162700
861.233	0.0163131
861.311	0.0164153
861.389	0.0163036
861.467	0.0163704
861.545	0.0165026
861.623	0.0164303
861.701	0.0165322
861.780	0.0165396
861.858	0.0164888
861.936	0.0165566
862.014	0.0164767
862.092	0.0166182
862.170	0.0165911
862.248	0.0165395
862.326	0.0164931
862.405	0.0167051
862.483	0.0165106
862.561	0.0165792
862.639	0.0165803
862.717	0.0165781
862.795	0.0166062
862.873	0.0165173
862.951	0.0164684
863.030	0.0165100
863.108	0.0165501
863.186	0.0165148
863.264	0.0164455
863.342	0.0163711
863.420	0.0164220
863.498	0.0165002
863.576	0.0165604
863.655	0.0165112
863.733	0.0165020
863.811	0.0165572
863.889	0.0165887
863.967	0.0163910
864.045	0.0166051
864.123	0.0165915
864.201	0.0166316
864.280	0.0166552
864.358	0.0166002
864.436	0.0166195
864.514	0.0166366
864.592	0.0166985
864.670	0.0166400
864.748	0.0165444
864.826	0.0166306
864.905	0.0167282
864.983	0.0165456
865.061	0.0167126
865.139	0.0168192
865.217	0.0167349
865.295	0.0166424
865.373	0.0166967
865.451	0.0168105
865.530	0.0166513
865.608	0.0167281
865.686	0.0167776
865.764	0.0167594
865.842	0.0166503
865.920	0.0166217
865.998	0.0167010
866.076	0.0167427
866.155	0.0165380
866.233	0.0167545
866.311	0.0167223
866.389	0.0168172
866.467	0.0166817
866.545	0.0165974
866.623	0.0166961
866.701	0.0165147
866.780	0.0165835
866.858	0.0166411
866.936	0.0165623
867.014	0.0166447
867.092	0.0165882
867.170	0.0165899
867.248	0.0165635
867.326	0.0165802
867.405	0.0164542
867.483	0.0165139
867.561	0.0164945
867.639	0.0164435
867.717	0.0166299
867.795	0.0164680
867.873	0.0165452
867.951	0.0165966
868.030	0.0166670
868.108	0.0165334
868.186	0.0165733
868.264	0.0165981
868.342	0.0166182
868.420	0.0166326
868.498	0.0166524
868.576	0.0167252
868.655	0.0167561
868.733	0.0165854
868.811	0.0167163
868.889	0.0166635
868.967	0.0167001
869.045	0.0167948
869.123	0.0166720
869.201	0.0165533
869.280	0.0166087
869.358	0.0166768
869.436	0.0165405
869.514	0.0166303
869.592	0.0166428
869.670	0.0164589
869.748	0.0166077
869.826	0.0166308
869.905	0.0165616
869.983	0.0166074
870.061	0.0165711
870.139	0.0166722
870.217	0.0165742
870.295	0.0166644
870.373	0.0166088
870.451	0.0166034
870.530	0.0165829
870.608	0.0166422
870.686	0.0165977
870.764	0.0166051
870.842	0.0166785
870.920	0.0166028
870.998	0.0166734
871.076	0.0165958
871.155	0.0166580
871.233	0.0165928
871.311	0.0166303
871.389	0.0165929
871.467	0.0166458
871.545	0.0165256
871.623	0.0165485
871.701	0.0165767
871.780	0.0165445
871.858	0.0165326
871.936	0.0164193
872.014	0.0163193
872.092	0.0164143
872.170	0.0164984
872.248	0.0164810
872.326	0.0163461
872.405	0.0163653
872.483	0.0163830
872.561	0.0163885
872.639	0.0163156
872.717	0.0164286
872.795	0.0164857
872.873	0.0163194
872.951	0.0163317
873.030	0.0164055
873.108	0.0165373
873.186	0.0165816
873.264	0.0165619
873.342	0.0165781
873.420	0.0165998
873.498	0.0165796
873.576	0.0167049
873.655	0.0167245
873.733	0.0166816
873.811	0.0167314
873.889	0.0167823
873.967	0.0167801
874.045	0.0168867
874.123	0.0168625
874.201	0.0167341
874.280	0.0167182
874.358	0.0167557
874.436	0.0166334
874.514	0.0166932
874.592	0.0166819
874.670	0.0166722
874.748	0.0166966
874.826	0.0165662
874.905	0.0164802
874.983	0.0166675
875.061	0.0165497
875.139	0.0165488
875.217	0.0166189
875.295	0.0166817
875.373	0.0164732
875.451	0.0165431
875.530	0.0165533
875.608	0.0164773
875.686	0.0164987
875.764	0.0164558
875.842	0.0165304
875.920	0.0165856
875.998	0.0164426
876.076	0.0165321
876.155	0.0166877
876.233	0.0165580
876.311	0.0166811
876.389	0.0165990
876.467	0.0165732
876.545	0.0164791
876.623	0.0166437
876.701	0.0166923
876.780	0.0166708
876.858	0.0167278
876.936	0.0166718
877.014	0.0166991
877.092	0.0165617
877.170	0.0166705
877.248	0.0165890
877.326	0.0166168
877.405	0.0166373
877.483	0.0166780
877.561	0.0167460
877.639	0.0166180
877.717	0.0166684
877.795	0.0166718
877.873	0.0165493
877.951	0.0167850
878.030	0.0165733
878.108	0.0166945
878.186	0.0167478
878.264	0.0167524
878.342	0.0166388
878.420	0.0165291
878.498	0.0165977
878.576	0.0165821
878.655	0.0167007
878.733	0.0166073
878.811	0.0166795
878.889	0.0165768
878.967	0.0165774
879.045	0.0167932
879.123	0.0166386
879.201	0.0164983
879.280	0.0165933
879.358	0.0165466
879.436	0.0165808
879.514	0.0165497
879.592	0.0164545
879.670	0.0164909
879.748	0.0164812
879.826	0.0164281
879.905	0.0165402
879.983	0.0164805
880.061	0.0164119
880.139	0.0165922
880.217	0.0166384
880.295	0.0165009
880.373	0.0163771
880.451	0.0164447
880.530	0.0165950
880.608	0.0165149
880.686	0.0164613
880.764	0.0166496
880.842	0.0166115
880.920	0.0166699
880.998	0.0163969
881.076	0.0164355
881.155	0.0165677
881.233	0.0166232
881.311	0.0166241
881.389	0.0166699
881.467	0.0167021
881.545	0.0164738
881.623	0.0166367
881.701	0.0166044
881.780	0.0165567
881.858	0.0166859
881.936	0.0164847
882.014	0.0165115
882.092	0.0166575
882.170	0.0166498
882.248	0.0165049
882.326	0.0163943
882.405	0.0165794
882.483	0.0165554
882.561	0.0166285
882.639	0.0165843
882.717	0.0165343
882.795	0.0163618
882.873	0.0165392
882.951	0.0165126
883.030	0.0165018
883.108	0.0166004
883.186	0.0164798
883.264	0.0164450
883.342	0.0164532
883.420	0.0164503
883.498	0.0165697
883.576	0.0165166
883.655	0.0165254
883.733	0.0164166
883.811	0.0163432
883.889	0.0164198
883.967	0.0164661
884.045	0.0164241
884.123	0.0164799
884.201	0.0163409
884.280	0.0164312
884.358	0.0164362
884.436	0.0164716
884.514	0.0164708
884.592	0.0165112
884.670	0.0165409
884.748	0.0164851
884.826	0.0166035
884.905	0.0166756
884.983	0.0166297
885.061	0.0167237
885.139	0.0166401
885.217	0.0166400
885.295	0.0166730
885.373	0.0165904
885.451	0.0166706
885.530	0.0167976
885.608	0.0166682
885.686	0.0165916
885.764	0.0166104
885.842	0.0165701
885.920	0.0167631
885.998	0.0166010
886.076	0.0166679
886.155	0.0165887
886.233	0.0166437
886.311	0.0165979
886.389	0.0165652
886.467	0.0164445
886.545	0.0165343
886.623	0.0165266
886.701	0.0166343
886.780	0.0165515
886.858	0.0164455
886.936	0.0165996
887.014	0.0166532
887.092	0.0166068
887.170	0.0165279
887.248	0.0164959
887.326	0.0165434
887.405	0.0165706
887.483	0.0165293
887.561	0.0165656
887.639	0.0165382
887.717	0.0166917
887.795	0.0166113
887.873	0.0165667
887.951	0.0165543
888.030	0.0165861
888.108	0.0165112
888.186	0.0164186
888.264	0.0164674
888.342	0.0165874
888.420	0.0164753
888.498	0.0165456
888.576	0.0164164
888.655	0.0164052
888.733	0.0164305
888.811	0.0164245
888.889	0.0164435
888.967	0.0164572
889.045	0.0163939
889.123	0.0164191
889.201	0.0163014
889.280	0.0163135
889.358	0.0163269
889.436	0.0165808
889.514	0.0164703
889.592	0.0164449
889.670	0.0164816
889.748	0.0165498
889.826	0.0166183
889.905	0.0164197
889.983	0.0165155
890.061	0.0164590
890.139	0.0165150
890.217	0.0164795
890.295	0.0165137
890.373	0.0163385
890.451	0.0164251
890.530	0.0164044
890.608	0.0163421
890.686	0.0164425
890.764	0.0164484
890.842	0.0165172
890.920	0.0163584
890.998	0.0162627
891.076	0.0163903
891.155	0.0164296
891.233	0.0163992
891.311	0.0162935
891.389	0.0164529
891.467	0.0162534
891.545	0.0163939
891.623	0.0163414
891.701	0.0163567
891.780	0.0163036
891.858	0.0162226
891.936	0.0162911
892.014	0.0164058
892.092	0.0162778
892.170	0.0163334
892.248	0.0164791
892.326	0.0163866
892.405	0.0164246
892.483	0.0162751
892.561	0.0163358
892.639	0.0164720
892.717	0.0163936
892.795	0.0164269
892.873	0.0163491
892.951	0.0164049
893.030	0.0164311
893.108	0.0164037
893.186	0.0165611
893.264	0.0164372
893.342	0.0165218
893.420	0.0163881
893.498	0.0165034
893.576	0.0165241
893.655	0.0164789
893.733	0.0166080
893.811	0.0165415
893.889	0.0164804
893.967	0.0165907
894.045	0.0165143
894.123	0.0165414
894.201	0.0166230
894.280	0.0166502
894.358	0.0165504
894.436	0.0166846
894.514	0.0167105
894.592	0.0167815
894.670	0.0168027
894.748	0.0167581
894.826	0.0165276
894.905	0.0166759
894.983	0.0167284
895.061	0.0167513
895.139	0.0166573
895.217	0.0166328
895.295	0.0166341
895.373	0.0167938
895.451	0.0165849
895.530	0.0167056
895.608	0.0166027
895.686	0.0164949
895.764	0.0164659
895.842	0.0165438
895.920	0.0164986
895.998	0.0166529
896.076	0.0165572
896.155	0.0165427
896.233	0.0165946
896.311	0.0165437
896.389	0.0164999
896.467	0.0165178
896.545	0.0164697
896.623	0.0166171
896.701	0.0165855
896.780	0.0165675
896.858	0.0164054
896.936	0.0165611
897.014	0.0165813
897.092	0.0165646
897.170	0.0166903
897.248	0.0165966
897.326	0.0166162
897.405	0.0166428
897.483	0.0165862
897.561	0.0165536
897.639	0.0166528
897.717	0.0167062
897.795	0.0165923
897.873	0.0166002
897.951	0.0164877
898.030	0.0165789
898.108	0.0166395
898.186	0.0166172
898.264	0.0165638
898.342	0.0165567
898.420	0.0165907
898.498	0.0166279
898.576	0.0165975
898.655	0.0165503
898.733	0.0165162
898.811	0.0167442
898.889	0.0165350
898.967	0.0165657
899.045	0.0164734
899.123	0.0165526
899.201	0.0165530
899.280	0.0166340
899.358	0.0166314
899.436	0.0166669
899.514	0.0165525
899.592	0.0166189
899.670	0.0165173
899.748	0.0164513
899.826	0.0165253
899.905	0.0165673
899.983	0.0165813
900.061	0.0163904
900.139	0.0164871
900.217	0.0164713
900.295	0.0164510
900.373	0.0164562
900.451	0.0164256
900.530	0.0164877
900.608	0.0165384
900.686	0.0164690
900.764	0.0164104
900.842	0.0165934
900.920	0.0165000
900.998	0.0164096
901.076	0.0164391
901.155	0.0165524
901.233	0.0165874
901.311	0.0164914
901.389	0.0165275
901.467	0.0165089
901.545	0.0167271
901.623	0.0167036
901.701	0.0164039
901.780	0.0165580
901.858	0.0165973
901.936	0.0166643
902.014	0.0166033
902.092	0.0165231
902.170	0.0165989
902.248	0.0164603
902.326	0.0165773
902.405	0.0165169
902.483	0.0165702
902.561	0.0164354
902.639	0.0165058
902.717	0.0165891
902.795	0.0167178
902.873	0.0165535
902.951	0.0165009
903.030	0.0164837
903.108	0.0165303
903.186	0.0164339
903.264	0.0164379
903.342	0.0163298
903.420	0.0164659
903.498	0.0163976
903.576	0.0164623
903.655	0.0163818
903.733	0.0164192
903.811	0.0164729
903.889	0.0164503
903.967	0.0164645
904.045	0.0163412
904.123	0.0164070
904.201	0.0164408
904.280	0.0164175
904.358	0.0164027
904.436	0.0164318
904.514	0.0162643
904.592	0.0164992
904.670	0.0165326
904.748	0.0162640
904.826	0.0162158
904.905	0.0164540
904.983	0.0164778
905.061	0.0164532
905.139	0.0164371
905.217	0.0163595
905.295	0.0163759
905.373	0.0165583
905.451	0.0164674
905.530	0.0164684
905.608	0.0165481
905.686	0.0166085
905.764	0.0165710
905.842	0.0165887
905.920	0.0165027
905.998	0.0165102
906.076	0.0165733
906.155	0.0165997
906.233	0.0164576
906.311	0.0165019
906.389	0.0164811
906.467	0.0165682
906.545	0.0165829
906.623	0.0164326
906.701	0.0164172
906.780	0.0163059
906.858	0.0163441
906.936	0.0164715
907.014	0.0164439
907.092	0.0163767
907.170	0.0164192
907.248	0.0164945
907.326	0.0163473
907.405	0.0163448
907.483	0.0163010
907.561	0.0164018
907.639	0.0164794
907.717	0.0163927
907.795	0.0164421
907.873	0.0164337
907.951	0.0164377
908.030	0.0164184
908.108	0.0164232
908.186	0.0164233
908.264	0.0163708
908.342	0.0163717
908.420	0.0162955
908.498	0.0162402
908.576	0.0163838
908.655	0.0162932
908.733	0.0164300
908.811	0.0162971
908.889	0.0162788
908.967	0.0164361
909.045	0.0163320
909.123	0.0163289
909.201	0.0163042
909.280	0.0163473
909.358	0.0163042
909.436	0.0164509
909.514	0.0164220
909.592	0.0165125
909.670	0.0163944
909.748	0.0163708
909.826	0.0163113
909.905	0.0163771
909.983	0.0165523
910.061	0.0163541
910.139	0.0164156
910.217	0.0164768
910.295	0.0167042
910.373	0.0164612
910.451	0.0165066
910.530	0.0166109
910.608	0.0164777
910.686	0.0166846
910.764	0.0166902
910.842	0.0166470
910.920	0.0166092
910.998	0.0166801
911.076	0.0166602
911.155	0.0167355
911.233	0.0167213
911.311	0.0166896
911.389	0.0166628
911.467	0.0167341
911.545	0.0167353
911.623	0.0167245
911.701	0.0166248
911.780	0.0165421
911.858	0.0166538
911.936	0.0166582
912.014	0.0166493
912.092	0.0167304
912.170	0.0166776
912.248	0.0166187
912.326	0.0166130
912.405	0.0165307
912.483	0.0165720
912.561	0.0164591
912.639	0.0165392
912.717	0.0165963
912.795	0.0164993
912.873	0.0164548
912.951	0.0165166
913.030	0.0165014
913.108	0.0165023
913.186	0.0164615
913.264	0.0164610
913.342	0.0164503
913.420	0.0165534
913.498	0.0164422
913.576	0.0163904
913.655	0.0164313
913.733	0.0164267
913.811	0.0164611
913.889	0.0162962
913.967	0.0163171
914.045	0.0164383
914.123	0.0163052
914.201	0.0163516
914.280	0.0163776
914.358	0.0164011
914.436	0.0164748
914.514	0.0163498
914.592	0.0164954
914.670	0.0164449
914.748	0.0163894
914.826	0.0164780
914.905	0.0164334
914.983	0.0164505
915.061	0.0164624
915.139	0.0163979
915.217	0.0165635
915.295	0.0163542
915.373	0.0164635
915.451	0.0165488
915.530	0.0164530
915.608	0.0164831
915.686	0.0165052
915.764	0.0165113
915.842	0.0164664
915.920	0.0164765
915.998	0.0164881
916.076	0.0164252
916.155	0.0165087
916.233	0.0166328
916.311	0.0165636
916.389	0.0164574
916.467	0.0165214
916.545	0.0165595
916.623	0.0165401
916.701	0.0164124
916.780	0.0164011
916.858	0.0164289
916.936	0.0164218
917.014	0.0164919
917.092	0.0164984
917.170	0.0164619
917.248	0.0163255
917.326	0.0163380
917.405	0.0164892
917.483	0.0163668
917.561	0.0164837
917.639	0.0165248
917.717	0.0163911
917.795	0.0163499
917.873	0.0162604
917.951	0.0164825
918.030	0.0162582
918.108	0.0163193
918.186	0.0163986
918.264	0.0164391
918.342	0.0163049
918.420	0.0163482
918.498	0.0163675
918.576	0.0164571
918.655	0.0165248
918.733	0.0165300
918.811	0.0166025
918.889	0.0166668
918.967	0.0165935
919.045	0.0165242
919.123	0.0164003
919.201	0.0166802
919.280	0.0166904
919.358	0.0165892
919.436	0.0166908
919.514	0.0167186
919.592	0.0166449
919.670	0.0167187
919.748	0.0166440
919.826	0.0167053
919.905	0.0167234
919.983	0.0166974
920.061	0.0165059
920.139	0.0166606
920.217	0.0165767
920.295	0.0165026
920.373	0.0164818
920.451	0.0166250
920.530	0.0165466
920.608	0.0166181
920.686	0.0165038
920.764	0.0164386
920.842	0.0164596
920.920	0.0165815
920.998	0.0164939
921.076	0.0165533
921.155	0.0166512
921.233	0.0164148
921.311	0.0165644
921.389	0.0166592
921.467	0.0164540
921.545	0.0166687
921.623	0.0166511
921.701	0.0165253
921.780	0.0165946
921.858	0.0165472
921.936	0.0164230
922.014	0.0165673
922.092	0.0164565
922.170	0.0165429
922.248	0.0165417
922.326	0.0167014
922.405	0.0166183
922.483	0.0166003
922.561	0.0165865
922.639	0.0166974
922.717	0.0165550
922.795	0.0166934
922.873	0.0165923
922.951	0.0167386
923.030	0.0167389
923.108	0.0167306
923.186	0.0166930
923.264	0.0166444
923.342	0.0167766
923.420	0.0167941
923.498	0.0168002
923.576	0.0167635
923.655	0.0168372
923.733	0.0167991
923.811	0.0167146
923.889	0.0166561
923.967	0.0167126
924.045	0.0167912
924.123	0.0167157
924.201	0.0166588
924.280	0.0167539
924.358	0.0167182
924.436	0.0166882
924.514	0.0167056
924.592	0.0167967
924.670	0.0166068
924.748	0.0164799
924.826	0.0166251
924.905	0.0166161
924.983	0.0166068
925.061	0.0166005
925.139	0.0165968
925.217	0.0166083
925.295	0.0166206
925.373	0.0166123
925.451	0.0164774
925.530	0.0165319
925.608	0.0164870
925.686	0.0164416
925.764	0.0164896
925.842	0.0165455
925.920	0.0164581
925.998	0.0164185
926.076	0.0165737
926.155	0.0165692
926.233	0.0165353
926.311	0.0164944
926.389	0.0164725
926.467	0.0165372
926.545	0.0166845
926.623	0.0165987
926.701	0.0165398
926.780	0.0165276
926.858	0.0165012
926.936	0.0165926
927.014	0.0166897
927.092	0.0167150
927.170	0.0166196
927.248	0.0166393
927.326	0.0167463
927.405	0.0166441
927.483	0.0166545
927.561	0.0168317
927.639	0.0166786
927.717	0.0166187
927.795	0.0166638
927.873	0.0166268
927.951	0.0166132
928.030	0.0166604
928.108	0.0165523
928.186	0.0165205
928.264	0.0164362
928.342	0.0164881
928.420	0.0166228
928.498	0.0165227
928.576	0.0164151
928.655	0.0163889
928.733	0.0162251
928.811	0.0163010
928.889	0.0164771
928.967	0.0163790
929.045	0.0165238
929.123	0.0164297
929.201	0.0163904
929.280	0.0164251
929.358	0.0164935
929.436	0.0165076
929.514	0.0164223
929.592	0.0164214
929.670	0.0165984
929.748	0.0164703
929.826	0.0164886
929.905	0.0165222
929.983	0.0166264
930.061	0.0165203
930.139	0.0165566
930.217	0.0165583
930.295	0.0163271
930.373	0.0163615
930.451	0.0165280
930.530	0.0163924
930.608	0.0163719
930.686	0.0162969
930.764	0.0164005
930.842	0.0163377
930.920	0.0163309
930.998	0.0164747
931.076	0.0164509
931.155	0.0163577
931.233	0.0163677
931.311	0.0163557
931.389	0.0165010
931.467	0.0163213
931.545	0.0162973
931.623	0.0164276
931.701	0.0163979
931.780	0.0163712
931.858	0.0163383
931.936	0.0164086
932.014	0.0165237
932.092	0.0164810
932.170	0.0164532
932.248	0.0165142
932.326	0.0163991
932.405	0.0164690
932.483	0.0166088
932.561	0.0164204
932.639	0.0164491
932.717	0.0164996
932.795	0.0166702
932.873	0.0166124
932.951	0.0165466
933.030	0.0164313
933.108	0.0164048
933.186	0.0165056
933.264	0.0165421
933.342	0.0164084
933.420	0.0164172
933.498	0.0164854
933.576	0.0164103
933.655	0.0165424
933.733	0.0165794
933.811	0.0164806
933.889	0.0165440
933.967	0.0165666
934.045	0.0164064
934.123	0.0164826
934.201	0.0166555
934.280	0.0165858
934.358	0.0166324
934.436	0.0166241
934.514	0.0167332
934.592	0.0166165
934.670	0.0166487
934.748	0.0167658
934.826	0.0166251
934.905	0.0165612
934.983	0.0166130
935.061	0.0167484
935.139	0.0165503
935.217	0.0165884
935.295	0.0166243
935.373	0.0165739
935.451	0.0165907
935.530	0.0165539
935.608	0.0165402
935.686	0.0165154
935.764	0.0165857
935.842	0.0164300
935.920	0.0164664
935.998	0.0165044
936.076	0.0163682
936.155	0.0165149
936.233	0.0166122
936.311	0.0166282
936.389	0.0165736
936.467	0.0165466
936.545	0.0165209
936.623	0.0165494
936.701	0.0165675
936.780	0.0166189
936.858	0.0165970
936.936	0.0167088
937.014	0.0166175
937.092	0.0166069
937.170	0.0166554
937.248	0.0167591
937.326	0.0168156
937.405	0.0166579
937.483	0.0167816
937.561	0.0166894
937.639	0.0167204
937.717	0.0167345
937.795	0.0166294
937.873	0.0166827
937.951	0.0166644
938.030	0.0165772
938.108	0.0166701
938.186	0.0166364
938.264	0.0166560
938.342	0.0165091
938.420	0.0166508
938.498	0.0166840
938.576	0.0166502
938.655	0.0165836
938.733	0.0166036
938.811	0.0167148
938.889	0.0165485
938.967	0.0166455
939.045	0.0167019
939.123	0.0166560
939.201	0.0165531
939.280	0.0167203
939.358	0.0166312
939.436	0.0165658
939.514	0.0166593
939.592	0.0166501
939.670	0.0167222
939.748	0.0167966
939.826	0.0167223
939.905	0.0167229
939.983	0.0166273
940.061	0.0166644
940.139	0.0167272
940.217	0.0167120
940.295	0.0165778
940.373	0.0167003
940.451	0.0168301
940.530	0.0166714
940.608	0.0166618
940.686	0.0166649
940.764	0.0166551
940.842	0.0165806
940.920	0.0166430
940.998	0.0165329
941.076	0.0166357
941.155	0.0165401
941.233	0.0165806
941.311	0.0163710
941.389	0.0166332
941.467	0.0164378
941.545	0.0163258
941.623	0.0165367
941.701	0.0165041
941.780	0.0165428
941.858	0.0162759
941.936	0.0164763
942.014	0.0164079
942.092	0.0164057
942.170	0.0164940
942.248	0.0164956
942.326	0.0164173
942.405	0.0164571
942.483	0.0164357
942.561	0.0164574
942.639	0.0164732
942.717	0.0165549
942.795	0.0165827
942.873	0.0164047
942.951	0.0164447
943.030	0.0167181
943.108	0.0166390
943.186	0.0166016
943.264	0.0166114
943.342	0.0166193
943.420	0.0168250
943.498	0.0167480
943.576	0.0166494
943.655	0.0164793
943.733	0.0166588
943.811	0.0167590
943.889	0.0166740
943.967	0.0166777
944.045	0.0168431
944.123	0.0167571
944.201	0.0168005
944.280	0.0169051
944.358	0.0166401
944.436	0.0168248
944.514	0.0169558
944.592	0.0169462
944.670	0.0169378
944.748	0.0168743
944.826	0.0168320
944.905	0.0168592
944.983	0.0168100
945.061	0.0168388
945.139	0.0168877
945.217	0.0168192
945.295	0.0168917
945.373	0.0168451
945.451	0.0167741
945.530	0.0167213
945.608	0.0168177
945.686	0.0167123
945.764	0.0168194
945.842	0.0168405
945.920	0.0165529
945.998	0.0166328
946.076	0.0166694
946.155	0.0167328
946.233	0.0165580
946.311	0.0164983
946.389	0.0166402
946.467	0.0164392
946.545	0.0165181
946.623	0.0164648
946.701	0.0164976
946.780	0.0165236
946.858	0.0165334
946.936	0.0165063
947.014	0.0165513
947.092	0.0165183
947.170	0.0165038
947.248	0.0165428
947.326	0.0165215
947.405	0.0164279
947.483	0.0164258
947.561	0.0165820
947.639	0.0165311
947.717	0.0165193
947.795	0.0166283
947.873	0.0165878
947.951	0.0165472
948.030	0.0165784
948.108	0.0165981
948.186	0.0165369
948.264	0.0165977
948.342	0.0165525
948.420	0.0167589
948.498	0.0165702
948.576	0.0166827
948.655	0.0166020
948.733	0.0165623
948.811	0.0166676
948.889	0.0166371
948.967	0.0165826
949.045	0.0165772
949.123	0.0165936
949.201	0.0165192
949.280	0.0165846
949.358	0.0165995
949.436	0.0165363
949.514	0.0166361
949.592	0.0165934
949.670	0.0166635
949.748	0.0165790
949.826	0.0165346
949.905	0.0167101
949.983	0.0166772
950.061	0.0164969
950.139	0.0166334
950.217	0.0166388
950.295	0.0166193
950.373	0.0167455
950.451	0.0166259
950.530	0.0164274
950.608	0.0166545
950.686	0.0165674
950.764	0.0165804
950.842	0.0166606
950.920	0.0168130
950.998	0.0167751
951.076	0.0166143
951.155	0.0166843
951.233	0.0166674
951.311	0.0166702
951.389	0.0166206
951.467	0.0167351
951.545	0.0167117
951.623	0.0166988
951.701	0.0166075
951.780	0.0165858
951.858	0.0166139
951.936	0.0167105
952.014	0.0164949
952.092	0.0166272
952.170	0.0165871
952.248	0.0165958
952.326	0.0165723
952.405	0.0165167
952.483	0.0166139
952.561	0.0165314
952.639	0.0165345
952.717	0.0166613
952.795	0.0166227
952.873	0.0164947
952.951	0.0165658
953.030	0.0167090
953.108	0.0165574
953.186	0.0165678
953.264	0.0165689
953.342	0.0165878
953.420	0.0164731
953.498	0.0164823
953.576	0.0165625
953.655	0.0165820
953.733	0.0166805
953.811	0.0166007
953.889	0.0165694
953.967	0.0165083
954.045	0.0164546
954.123	0.0165143
954.201	0.0165763
954.280	0.0165919
954.358	0.0164178
954.436	0.0166000
954.514	0.0165043
954.592	0.0165482
954.670	0.0164587
954.748	0.0163791
954.826	0.0162697
954.905	0.0164140
954.983	0.0164722
955.061	0.0162651
955.139	0.0163313
955.217	0.0164529
955.295	0.0164967
955.373	0.0162925
955.451	0.0164743
955.530	0.0164236
955.608	0.0163304
955.686	0.0164301
955.764	0.0164096
955.842	0.0164420
955.920	0.0164321
955.998	0.0165626
956.076	0.0165381
956.155	0.0164201
956.233	0.0164544
956.311	0.0166091
956.389	0.0163401
956.467	0.0163477
956.545	0.0164785
956.623	0.0163654
956.701	0.0164382
956.780	0.0164692
956.858	0.0164006
956.936	0.0162351
957.014	0.0164857
957.092	0.0163766
957.170	0.0163901
957.248	0.0165230
957.326	0.0163406
957.405	0.0164231
957.483	0.0164043
957.561	0.0164903
957.639	0.0163616
957.717	0.0164038
957.795	0.0164333
957.873	0.0164749
957.951	0.0165111
958.030	0.0163806
958.108	0.0165895
958.186	0.0165808
958.264	0.0167213
958.342	0.0167651
958.420	0.0166578
958.498	0.0166250
958.576	0.0167290
958.655	0.0167017
958.733	0.0166638
958.811	0.0166767
958.889	0.0167844
958.967	0.0168140
959.045	0.0168473
959.123	0.0168141
959.201	0.0167757
959.280	0.0168208
959.358	0.0168337
959.436	0.0168674
959.514	0.0168021
959.592	0.0168757
959.670	0.0168095
959.748	0.0166727
959.826	0.0167941
959.905	0.0168079
