05/17/2022	17:06:19	Ver.	4.1	UNKNOWN
Optical Delay	639.982744	Delta X		0.078125	Sweeps	1	Scan Rate	0/0
Coordinates	Axis 1	NaN	Axis 2	NaN	Axis 3	NaN	Axis 4	NaN	Axis 5	NaN	Axis 6	0.000000
TX Power	0.000000	RX Power	0.000000

639.983	0.0165175
640.061	0.0166451
640.139	0.0165535
640.217	0.0165418
640.295	0.0164832
640.373	0.0165793
640.451	0.0166054
640.530	0.0165370
640.608	0.0166798
640.686	0.0165202
640.764	0.0165252
640.842	0.0166147
640.920	0.0164613
640.998	0.0166422
641.076	0.0165590
641.155	0.0166383
641.233	0.0165466
641.311	0.0166218
641.389	0.0166605
641.467	0.0167428
641.545	0.0166974
641.623	0.0166640
641.701	0.0165789
641.780	0.0167421
641.858	0.0166130
641.936	0.0166134
642.014	0.0166705
642.092	0.0165096
642.170	0.0165398
642.248	0.0165840
642.326	0.0165288
642.405	0.0165617
642.483	0.0165395
642.561	0.0165532
642.639	0.0163993
642.717	0.0165508
642.795	0.0165249
642.873	0.0165261
642.951	0.0166200
643.030	0.0166207
643.108	0.0165276
643.186	0.0164847
643.264	0.0166238
643.342	0.0164764
643.420	0.0165223
643.498	0.0164782
643.576	0.0165471
643.655	0.0166156
643.733	0.0164830
643.811	0.0164541
643.889	0.0163901
643.967	0.0164611
644.045	0.0164704
644.123	0.0164005
644.201	0.0165010
644.280	0.0164924
644.358	0.0165382
644.436	0.0164161
644.514	0.0165637
644.592	0.0166782
644.670	0.0165964
644.748	0.0164307
644.826	0.0166518
644.905	0.0166231
644.983	0.0166319
645.061	0.0166018
645.139	0.0165714
645.217	0.0165285
645.295	0.0165917
645.373	0.0165281
645.451	0.0166331
645.530	0.0165316
645.608	0.0165022
645.686	0.0167660
645.764	0.0165659
645.842	0.0166012
645.920	0.0164402
645.998	0.0164462
646.076	0.0164864
646.155	0.0166111
646.233	0.0166107
646.311	0.0165530
646.389	0.0164131
646.467	0.0164907
646.545	0.0165975
646.623	0.0166023
646.701	0.0165091
646.780	0.0164828
646.858	0.0165360
646.936	0.0164978
647.014	0.0165559
647.092	0.0165494
647.170	0.0165449
647.248	0.0165176
647.326	0.0164375
647.405	0.0165557
647.483	0.0164687
647.561	0.0165441
647.639	0.0163883
647.717	0.0165329
647.795	0.0165468
647.873	0.0165331
647.951	0.0164174
648.030	0.0163705
648.108	0.0164165
648.186	0.0164104
648.264	0.0163948
648.342	0.0164587
648.420	0.0164547
648.498	0.0165380
648.576	0.0164957
648.655	0.0164652
648.733	0.0164575
648.811	0.0163613
648.889	0.0163971
648.967	0.0165438
649.045	0.0163986
649.123	0.0165030
649.201	0.0163805
649.280	0.0163875
649.358	0.0163944
649.436	0.0164405
649.514	0.0164362
649.592	0.0162478
649.670	0.0162364
649.748	0.0164170
649.826	0.0164497
649.905	0.0162168
649.983	0.0161763
650.061	0.0163514
650.139	0.0162426
650.217	0.0161612
650.295	0.0161938
650.373	0.0162860
650.451	0.0162419
650.530	0.0162735
650.608	0.0162318
650.686	0.0161613
650.764	0.0162632
650.842	0.0161850
650.920	0.0161938
650.998	0.0161987
651.076	0.0161681
651.155	0.0163609
651.233	0.0163512
651.311	0.0162665
651.389	0.0161590
651.467	0.0161047
651.545	0.0163303
651.623	0.0163445
651.701	0.0162604
651.780	0.0162254
651.858	0.0160757
651.936	0.0161911
652.014	0.0162519
652.092	0.0162488
652.170	0.0161817
652.248	0.0161120
652.326	0.0162831
652.405	0.0159898
652.483	0.0161546
652.561	0.0160594
652.639	0.0159843
652.717	0.0162044
652.795	0.0161673
652.873	0.0161353
652.951	0.0161587
653.030	0.0161376
653.108	0.0161423
653.186	0.0160109
653.264	0.0161650
653.342	0.0161434
653.420	0.0160846
653.498	0.0161844
653.576	0.0161140
653.655	0.0161513
653.733	0.0161007
653.811	0.0162739
653.889	0.0163227
653.967	0.0163303
654.045	0.0162018
654.123	0.0161269
654.201	0.0162684
654.280	0.0163986
654.358	0.0161733
654.436	0.0163097
654.514	0.0164248
654.592	0.0164750
654.670	0.0162736
654.748	0.0163603
654.826	0.0164957
654.905	0.0164233
654.983	0.0164603
655.061	0.0165379
655.139	0.0165864
655.217	0.0164947
655.295	0.0163824
655.373	0.0165585
655.451	0.0165096
655.530	0.0165511
655.608	0.0164292
655.686	0.0163642
655.764	0.0164119
655.842	0.0164448
655.920	0.0164702
655.998	0.0164303
656.076	0.0165125
656.155	0.0163306
656.233	0.0163288
656.311	0.0163389
656.389	0.0161849
656.467	0.0163249
656.545	0.0163223
656.623	0.0163103
656.701	0.0163393
656.780	0.0162521
656.858	0.0162511
656.936	0.0162233
657.014	0.0162283
657.092	0.0161158
657.170	0.0161629
657.248	0.0162927
657.326	0.0160960
657.405	0.0162315
657.483	0.0162984
657.561	0.0162628
657.639	0.0161980
657.717	0.0162498
657.795	0.0160655
657.873	0.0161502
657.951	0.0162653
658.030	0.0162327
658.108	0.0161641
658.186	0.0162164
658.264	0.0162417
658.342	0.0162812
658.420	0.0165382
658.498	0.0163026
658.576	0.0162699
658.655	0.0163801
658.733	0.0163932
658.811	0.0164166
658.889	0.0164275
658.967	0.0164338
659.045	0.0165520
659.123	0.0166109
659.201	0.0165906
659.280	0.0165942
659.358	0.0167487
659.436	0.0167394
659.514	0.0167256
659.592	0.0167952
659.670	0.0168598
659.748	0.0170815
659.826	0.0169751
659.905	0.0168906
659.983	0.0168056
660.061	0.0169204
660.139	0.0170691
660.217	0.0169483
660.295	0.0169369
660.373	0.0169046
660.451	0.0168591
660.530	0.0169531
660.608	0.0168733
660.686	0.0169467
660.764	0.0169395
660.842	0.0167741
660.920	0.0168800
660.998	0.0167516
661.076	0.0168476
661.155	0.0167247
661.233	0.0165810
661.311	0.0166006
661.389	0.0165600
661.467	0.0165788
661.545	0.0164769
661.623	0.0163855
661.701	0.0163948
661.780	0.0164749
661.858	0.0163207
661.936	0.0163805
662.014	0.0162663
662.092	0.0161751
662.170	0.0162299
662.248	0.0162457
662.326	0.0163083
662.405	0.0163624
662.483	0.0161876
662.561	0.0162337
662.639	0.0162331
662.717	0.0163441
662.795	0.0164468
662.873	0.0163107
662.951	0.0162141
663.030	0.0164519
663.108	0.0164577
663.186	0.0165334
663.264	0.0165623
663.342	0.0166341
663.420	0.0167193
663.498	0.0168030
663.576	0.0166238
663.655	0.0167096
663.733	0.0167093
663.811	0.0167852
663.889	0.0166584
663.967	0.0167019
664.045	0.0167475
664.123	0.0167328
664.201	0.0167536
664.280	0.0165329
664.358	0.0166131
664.436	0.0165874
664.514	0.0164523
664.592	0.0163670
664.670	0.0163170
664.748	0.0163342
664.826	0.0161850
664.905	0.0160519
664.983	0.0159639
665.061	0.0158957
665.139	0.0160993
665.217	0.0158581
665.295	0.0159389
665.373	0.0158511
665.451	0.0156815
665.530	0.0157660
665.608	0.0158369
665.686	0.0158176
665.764	0.0158046
665.842	0.0157890
665.920	0.0158228
665.998	0.0158119
666.076	0.0158902
666.155	0.0159528
666.233	0.0159237
666.311	0.0160719
666.389	0.0162337
666.467	0.0162893
666.545	0.0163941
666.623	0.0165207
666.701	0.0165783
666.780	0.0166246
666.858	0.0169264
666.936	0.0168867
667.014	0.0168799
667.092	0.0169230
667.170	0.0170361
667.248	0.0172427
667.326	0.0170525
667.405	0.0170783
667.483	0.0171954
667.561	0.0171455
667.639	0.0170115
667.717	0.0170054
667.795	0.0169800
667.873	0.0169674
667.951	0.0166781
668.030	0.0166914
668.108	0.0165637
668.186	0.0164141
668.264	0.0161936
668.342	0.0161701
668.420	0.0159850
668.498	0.0160100
668.576	0.0156606
668.655	0.0156818
668.733	0.0156928
668.811	0.0155203
668.889	0.0154507
668.967	0.0153651
669.045	0.0153799
669.123	0.0155200
669.201	0.0153713
669.280	0.0153326
669.358	0.0156416
669.436	0.0155431
669.514	0.0154796
669.592	0.0157386
669.670	0.0158749
669.748	0.0160558
669.826	0.0162876
669.905	0.0164442
669.983	0.0166153
670.061	0.0166833
670.139	0.0168327
670.217	0.0170830
670.295	0.0171378
670.373	0.0172894
670.451	0.0175011
670.530	0.0173996
670.608	0.0175918
670.686	0.0177159
670.764	0.0176423
670.842	0.0176667
670.920	0.0174860
670.998	0.0175356
671.076	0.0176005
671.155	0.0174892
671.233	0.0174869
671.311	0.0173465
671.389	0.0172792
671.467	0.0171146
671.545	0.0169089
671.623	0.0168066
671.701	0.0166977
671.780	0.0164690
671.858	0.0164274
671.936	0.0162660
672.014	0.0160477
672.092	0.0161568
672.170	0.0158654
672.248	0.0157253
672.326	0.0155489
672.405	0.0156072
672.483	0.0155524
672.561	0.0155423
672.639	0.0155278
672.717	0.0155638
672.795	0.0156149
672.873	0.0156881
672.951	0.0157890
673.030	0.0159203
673.108	0.0158819
673.186	0.0159457
673.264	0.0161485
673.342	0.0163808
673.420	0.0165143
673.498	0.0165568
673.576	0.0168324
673.655	0.0167445
673.733	0.0169571
673.811	0.0169495
673.889	0.0171705
673.967	0.0171974
674.045	0.0170647
674.123	0.0173079
674.201	0.0173333
674.280	0.0171598
674.358	0.0172217
674.436	0.0172326
674.514	0.0172615
674.592	0.0172591
674.670	0.0169611
674.748	0.0170426
674.826	0.0170496
674.905	0.0168312
674.983	0.0167013
675.061	0.0167901
675.139	0.0167313
675.217	0.0165150
675.295	0.0164512
675.373	0.0165068
675.451	0.0164664
675.530	0.0163462
675.608	0.0163076
675.686	0.0164522
675.764	0.0164162
675.842	0.0163720
675.920	0.0164206
675.998	0.0164165
676.076	0.0165500
676.155	0.0164521
676.233	0.0163289
676.311	0.0165366
676.389	0.0165905
676.467	0.0164008
676.545	0.0164544
676.623	0.0165379
676.701	0.0165165
676.780	0.0162981
676.858	0.0161977
676.936	0.0162312
677.014	0.0163017
677.092	0.0161697
677.170	0.0161266
677.248	0.0160813
677.326	0.0160033
677.405	0.0160680
677.483	0.0160043
677.561	0.0158558
677.639	0.0159032
677.717	0.0158911
677.795	0.0159213
677.873	0.0159406
677.951	0.0159176
678.030	0.0160201
678.108	0.0160764
678.186	0.0161170
678.264	0.0162513
678.342	0.0163400
678.420	0.0164400
678.498	0.0163876
678.576	0.0165012
678.655	0.0167731
678.733	0.0168226
678.811	0.0168836
678.889	0.0170543
678.967	0.0171334
679.045	0.0171868
679.123	0.0173146
679.201	0.0172322
679.280	0.0172536
679.358	0.0174545
679.436	0.0173640
679.514	0.0174065
679.592	0.0173859
679.670	0.0172617
679.748	0.0172127
679.826	0.0172202
679.905	0.0169531
679.983	0.0169963
680.061	0.0168485
680.139	0.0167028
680.217	0.0165147
680.295	0.0164970
680.373	0.0162708
680.451	0.0162633
680.530	0.0161269
680.608	0.0159371
680.686	0.0159302
680.764	0.0158485
680.842	0.0157923
680.920	0.0158662
680.998	0.0157771
681.076	0.0157611
681.155	0.0157791
681.233	0.0157874
681.311	0.0156976
681.389	0.0159293
681.467	0.0161572
681.545	0.0160004
681.623	0.0161799
681.701	0.0162579
681.780	0.0164181
681.858	0.0164977
681.936	0.0166010
682.014	0.0167674
682.092	0.0166962
682.170	0.0168239
682.248	0.0168481
682.326	0.0169911
682.405	0.0171672
682.483	0.0169697
682.561	0.0171166
682.639	0.0169739
682.717	0.0171215
682.795	0.0169797
682.873	0.0169781
682.951	0.0169180
683.030	0.0168456
683.108	0.0167609
683.186	0.0166856
683.264	0.0166597
683.342	0.0166857
683.420	0.0164610
683.498	0.0164933
683.576	0.0164191
683.655	0.0165579
683.733	0.0162651
683.811	0.0162070
683.889	0.0161754
683.967	0.0161046
684.045	0.0160566
684.123	0.0159126
684.201	0.0159535
684.280	0.0160027
684.358	0.0160387
684.436	0.0159222
684.514	0.0161089
684.592	0.0160613
684.670	0.0159805
684.748	0.0158999
684.826	0.0161291
684.905	0.0160423
684.983	0.0161521
685.061	0.0162334
685.139	0.0161449
685.217	0.0162411
685.295	0.0162934
685.373	0.0161800
685.451	0.0162558
685.530	0.0162751
685.608	0.0161635
685.686	0.0163264
685.764	0.0163312
685.842	0.0163105
685.920	0.0161710
685.998	0.0163830
686.076	0.0164387
686.155	0.0164527
686.233	0.0165652
686.311	0.0165669
686.389	0.0166835
686.467	0.0169065
686.545	0.0169030
686.623	0.0171317
686.701	0.0169211
686.780	0.0170826
686.858	0.0171822
686.936	0.0173306
687.014	0.0173161
687.092	0.0173427
687.170	0.0172521
687.248	0.0172193
687.326	0.0171740
687.405	0.0171954
687.483	0.0171033
687.561	0.0168626
687.639	0.0168774
687.717	0.0167675
687.795	0.0165257
687.873	0.0163978
687.951	0.0164320
688.030	0.0162865
688.108	0.0162075
688.186	0.0159241
688.264	0.0158885
688.342	0.0158829
688.420	0.0155693
688.498	0.0156619
688.576	0.0155486
688.655	0.0154446
688.733	0.0153729
688.811	0.0154868
688.889	0.0154522
688.967	0.0154411
689.045	0.0156274
689.123	0.0157139
689.201	0.0156814
689.280	0.0158009
689.358	0.0160556
689.436	0.0160652
689.514	0.0161444
689.592	0.0163248
689.670	0.0164819
689.748	0.0164259
689.826	0.0166631
689.905	0.0166800
689.983	0.0168613
690.061	0.0169233
690.139	0.0170539
690.217	0.0173264
690.295	0.0172322
690.373	0.0172729
690.451	0.0173145
690.530	0.0174297
690.608	0.0173828
690.686	0.0174329
690.764	0.0173891
690.842	0.0172648
690.920	0.0173088
690.998	0.0173246
691.076	0.0170194
691.155	0.0171406
691.233	0.0170893
691.311	0.0167847
691.389	0.0168875
691.467	0.0164434
691.545	0.0164999
691.623	0.0164690
691.701	0.0162943
691.780	0.0162008
691.858	0.0162511
691.936	0.0160291
692.014	0.0159001
692.092	0.0160688
692.170	0.0159436
692.248	0.0160547
692.326	0.0157742
692.405	0.0158745
692.483	0.0161027
692.561	0.0161040
692.639	0.0159849
692.717	0.0160216
692.795	0.0161190
692.873	0.0161412
692.951	0.0162644
693.030	0.0165012
693.108	0.0164554
693.186	0.0164581
693.264	0.0166293
693.342	0.0167220
693.420	0.0168358
693.498	0.0167811
693.576	0.0169415
693.655	0.0168357
693.733	0.0168991
693.811	0.0171812
693.889	0.0172576
693.967	0.0171307
694.045	0.0172352
694.123	0.0171356
694.201	0.0171006
694.280	0.0170738
694.358	0.0171091
694.436	0.0169247
694.514	0.0168789
694.592	0.0170553
694.670	0.0169744
694.748	0.0168507
694.826	0.0168629
694.905	0.0167859
694.983	0.0166967
695.061	0.0167662
695.139	0.0166767
695.217	0.0167119
695.295	0.0166603
695.373	0.0164996
695.451	0.0165173
695.530	0.0163725
695.608	0.0163184
695.686	0.0162138
695.764	0.0161975
695.842	0.0160193
695.920	0.0160061
695.998	0.0157614
696.076	0.0156413
696.155	0.0155131
696.233	0.0154529
696.311	0.0152501
696.389	0.0152124
696.467	0.0149741
696.545	0.0149888
696.623	0.0148744
696.701	0.0147543
696.780	0.0147385
696.858	0.0145803
696.936	0.0146336
697.014	0.0146796
697.092	0.0147202
697.170	0.0147105
697.248	0.0149323
697.326	0.0150517
697.405	0.0150519
697.483	0.0152659
697.561	0.0155740
697.639	0.0158875
697.717	0.0160299
697.795	0.0162917
697.873	0.0165140
697.951	0.0166607
698.030	0.0169907
698.108	0.0173570
698.186	0.0176505
698.264	0.0177000
698.342	0.0179629
698.420	0.0182146
698.498	0.0183340
698.576	0.0184426
698.655	0.0184885
698.733	0.0185982
698.811	0.0185426
698.889	0.0184544
698.967	0.0185783
699.045	0.0183693
699.123	0.0181567
699.201	0.0180045
699.280	0.0178513
699.358	0.0177484
699.436	0.0175249
699.514	0.0171948
699.592	0.0170161
699.670	0.0168946
699.748	0.0167181
699.826	0.0164294
699.905	0.0161803
699.983	0.0159341
700.061	0.0159584
700.139	0.0159112
700.217	0.0156437
700.295	0.0156050
700.373	0.0154705
700.451	0.0154649
700.530	0.0156898
700.608	0.0156207
700.686	0.0155531
700.764	0.0155511
700.842	0.0157575
700.920	0.0158048
700.998	0.0158208
701.076	0.0158772
701.155	0.0159325
701.233	0.0160307
701.311	0.0160397
701.389	0.0161190
701.467	0.0161744
701.545	0.0161840
701.623	0.0162433
701.701	0.0161929
701.780	0.0163027
701.858	0.0162022
701.936	0.0163184
702.014	0.0163733
702.092	0.0164368
702.170	0.0163431
702.248	0.0162645
702.326	0.0164810
702.405	0.0162782
702.483	0.0162698
702.561	0.0163277
702.639	0.0162958
702.717	0.0162102
702.795	0.0162156
702.873	0.0161904
702.951	0.0162144
703.030	0.0161584
703.108	0.0160471
703.186	0.0159370
703.264	0.0162278
703.342	0.0159810
703.420	0.0161044
703.498	0.0161752
703.576	0.0161575
703.655	0.0160313
703.733	0.0162621
703.811	0.0161709
703.889	0.0162167
703.967	0.0165140
704.045	0.0166435
704.123	0.0165929
704.201	0.0167117
704.280	0.0168739
704.358	0.0170973
704.436	0.0169992
704.514	0.0171554
704.592	0.0171151
704.670	0.0174039
704.748	0.0174074
704.826	0.0174489
704.905	0.0174322
704.983	0.0175104
705.061	0.0176026
705.139	0.0176367
705.217	0.0176902
705.295	0.0176208
705.373	0.0176165
705.451	0.0175269
705.530	0.0175457
705.608	0.0172961
705.686	0.0172436
705.764	0.0172417
705.842	0.0171737
705.920	0.0171239
705.998	0.0170609
706.076	0.0169160
706.155	0.0169864
706.233	0.0168858
706.311	0.0168270
706.389	0.0165114
706.467	0.0166081
706.545	0.0165391
706.623	0.0164660
706.701	0.0163626
706.780	0.0164129
706.858	0.0162421
706.936	0.0161597
707.014	0.0162046
707.092	0.0161639
707.170	0.0160205
707.248	0.0158121
707.326	0.0157925
707.405	0.0157732
707.483	0.0156843
707.561	0.0156166
707.639	0.0156172
707.717	0.0154408
707.795	0.0153534
707.873	0.0153036
707.951	0.0152887
708.030	0.0152100
708.108	0.0149749
708.186	0.0151507
708.264	0.0150945
708.342	0.0149521
708.420	0.0149425
708.498	0.0149597
708.576	0.0148751
708.655	0.0148503
708.733	0.0149017
708.811	0.0148905
708.889	0.0150284
708.967	0.0152048
709.045	0.0151542
709.123	0.0154990
709.201	0.0156580
709.280	0.0157152
709.358	0.0158777
709.436	0.0161481
709.514	0.0164042
709.592	0.0164609
709.670	0.0167159
709.748	0.0167400
709.826	0.0170432
709.905	0.0171624
709.983	0.0171502
710.061	0.0172390
710.139	0.0174681
710.217	0.0175830
710.295	0.0176488
710.373	0.0177267
710.451	0.0175903
710.530	0.0176842
710.608	0.0176168
710.686	0.0175845
710.764	0.0174780
710.842	0.0173289
710.920	0.0173326
710.998	0.0173896
711.076	0.0173146
711.155	0.0170890
711.233	0.0171398
711.311	0.0169096
711.389	0.0168390
711.467	0.0168974
711.545	0.0167067
711.623	0.0166029
711.701	0.0166346
711.780	0.0164856
711.858	0.0163817
711.936	0.0163044
712.014	0.0163734
712.092	0.0161788
712.170	0.0162296
712.248	0.0161298
712.326	0.0161619
712.405	0.0161215
712.483	0.0160334
712.561	0.0160665
712.639	0.0159895
712.717	0.0161583
712.795	0.0160817
712.873	0.0159844
712.951	0.0160177
713.030	0.0161127
713.108	0.0160117
713.186	0.0160486
713.264	0.0159514
713.342	0.0159639
713.420	0.0159978
713.498	0.0158218
713.576	0.0159481
713.655	0.0160559
713.733	0.0159303
713.811	0.0159404
713.889	0.0159185
713.967	0.0159392
714.045	0.0159432
714.123	0.0159000
714.201	0.0159776
714.280	0.0160829
714.358	0.0160904
714.436	0.0161751
714.514	0.0160867
714.592	0.0161288
714.670	0.0162515
714.748	0.0163247
714.826	0.0163480
714.905	0.0165306
714.983	0.0166261
715.061	0.0166676
715.139	0.0166824
715.217	0.0167544
715.295	0.0169724
715.373	0.0169823
715.451	0.0167738
715.530	0.0168173
715.608	0.0169967
715.686	0.0170908
715.764	0.0169087
715.842	0.0169229
715.920	0.0171427
715.998	0.0169488
716.076	0.0170668
716.155	0.0168546
716.233	0.0166800
716.311	0.0168224
716.389	0.0166508
716.467	0.0166559
716.545	0.0167108
716.623	0.0164676
716.701	0.0165201
716.780	0.0166195
716.858	0.0164172
716.936	0.0164841
717.014	0.0164959
717.092	0.0165818
717.170	0.0164101
717.248	0.0164860
717.326	0.0165808
717.405	0.0165679
717.483	0.0164881
717.561	0.0164936
717.639	0.0166188
717.717	0.0166615
717.795	0.0166376
717.873	0.0166183
717.951	0.0165949
718.030	0.0165610
718.108	0.0165139
718.186	0.0167886
718.264	0.0166816
718.342	0.0165102
718.420	0.0166265
718.498	0.0166816
718.576	0.0165316
718.655	0.0166445
718.733	0.0166178
718.811	0.0165749
718.889	0.0164979
718.967	0.0166554
719.045	0.0166025
719.123	0.0163371
719.201	0.0164534
719.280	0.0164353
719.358	0.0164005
719.436	0.0166275
719.514	0.0165715
719.592	0.0164935
719.670	0.0165315
719.748	0.0165688
719.826	0.0164898
719.905	0.0164688
719.983	0.0164068
720.061	0.0164149
720.139	0.0163654
720.217	0.0163883
720.295	0.0163477
720.373	0.0162139
720.451	0.0162222
720.530	0.0163140
720.608	0.0162393
720.686	0.0161702
720.764	0.0161973
720.842	0.0160385
720.920	0.0160140
720.998	0.0161292
721.076	0.0161861
721.155	0.0161537
721.233	0.0160020
721.311	0.0161853
721.389	0.0160429
721.467	0.0161983
721.545	0.0161278
721.623	0.0159845
721.701	0.0161057
721.780	0.0161148
721.858	0.0160461
721.936	0.0161665
722.014	0.0161744
722.092	0.0161074
722.170	0.0160846
722.248	0.0160964
722.326	0.0161101
722.405	0.0162022
722.483	0.0162772
722.561	0.0162670
722.639	0.0164576
722.717	0.0164256
722.795	0.0164600
722.873	0.0164729
722.951	0.0166514
723.030	0.0166296
723.108	0.0167476
723.186	0.0167267
723.264	0.0168169
723.342	0.0168784
723.420	0.0169115
723.498	0.0169077
723.576	0.0169592
723.655	0.0169180
723.733	0.0168815
723.811	0.0170300
723.889	0.0170242
723.967	0.0167945
724.045	0.0168106
724.123	0.0168475
724.201	0.0167416
724.280	0.0167407
724.358	0.0165201
724.436	0.0166291
724.514	0.0164016
724.592	0.0164567
724.670	0.0164225
724.748	0.0163658
724.826	0.0161508
724.905	0.0161343
724.983	0.0161633
725.061	0.0160876
725.139	0.0160149
725.217	0.0160803
725.295	0.0161236
725.373	0.0161131
725.451	0.0162008
725.530	0.0161694
725.608	0.0160534
725.686	0.0161752
725.764	0.0161420
725.842	0.0162074
725.920	0.0162527
725.998	0.0162866
726.076	0.0162747
726.155	0.0162339
726.233	0.0163474
726.311	0.0162076
726.389	0.0164135
726.467	0.0163931
726.545	0.0162267
726.623	0.0164136
726.701	0.0163922
726.780	0.0161643
726.858	0.0164614
726.936	0.0163147
727.014	0.0161984
727.092	0.0162244
727.170	0.0163015
727.248	0.0164613
727.326	0.0164068
727.405	0.0164017
727.483	0.0163486
727.561	0.0163757
727.639	0.0164994
727.717	0.0164324
727.795	0.0165231
727.873	0.0166681
727.951	0.0166631
728.030	0.0166809
728.108	0.0167247
728.186	0.0166034
728.264	0.0167360
728.342	0.0166581
728.420	0.0167365
728.498	0.0167776
728.576	0.0166363
728.655	0.0165881
728.733	0.0166116
728.811	0.0165908
728.889	0.0165569
728.967	0.0165896
729.045	0.0164754
729.123	0.0164172
729.201	0.0164079
729.280	0.0164190
729.358	0.0162836
729.436	0.0163268
729.514	0.0162803
729.592	0.0164224
729.670	0.0164136
729.748	0.0162411
729.826	0.0162682
729.905	0.0163468
729.983	0.0163254
730.061	0.0161107
730.139	0.0163028
730.217	0.0161412
730.295	0.0161010
730.373	0.0161359
730.451	0.0161925
730.530	0.0161799
730.608	0.0162449
730.686	0.0162346
730.764	0.0162631
730.842	0.0162302
730.920	0.0163234
730.998	0.0162379
731.076	0.0162448
731.155	0.0161202
731.233	0.0161166
731.311	0.0162329
731.389	0.0161819
731.467	0.0161118
731.545	0.0159988
731.623	0.0160558
731.701	0.0160426
731.780	0.0160075
731.858	0.0159341
731.936	0.0161599
732.014	0.0160046
732.092	0.0159870
732.170	0.0160077
732.248	0.0159356
732.326	0.0159978
732.405	0.0161346
732.483	0.0162412
732.561	0.0162527
732.639	0.0163322
732.717	0.0162466
732.795	0.0164632
732.873	0.0166286
732.951	0.0164685
733.030	0.0164880
733.108	0.0166228
733.186	0.0167331
733.264	0.0166175
733.342	0.0166621
733.420	0.0167630
733.498	0.0166025
733.576	0.0166531
733.655	0.0166460
733.733	0.0165310
733.811	0.0165869
733.889	0.0164776
733.967	0.0165058
734.045	0.0163457
734.123	0.0163999
734.201	0.0164109
734.280	0.0164323
734.358	0.0164365
734.436	0.0164649
734.514	0.0163783
734.592	0.0165732
734.670	0.0165547
734.748	0.0165553
734.826	0.0168639
734.905	0.0168130
734.983	0.0167216
735.061	0.0167237
735.139	0.0167981
735.217	0.0168037
735.295	0.0168436
735.373	0.0167992
735.451	0.0168242
735.530	0.0168356
735.608	0.0168127
735.686	0.0169114
735.764	0.0169743
735.842	0.0167930
735.920	0.0166411
735.998	0.0166389
736.076	0.0166839
736.155	0.0165459
736.233	0.0162348
736.311	0.0163850
736.389	0.0163384
736.467	0.0162980
736.545	0.0160826
736.623	0.0160580
736.701	0.0161137
736.780	0.0160911
736.858	0.0160499
736.936	0.0160746
737.014	0.0161506
737.092	0.0160661
737.170	0.0161970
737.248	0.0161666
737.326	0.0162923
737.405	0.0164088
737.483	0.0163554
737.561	0.0164565
737.639	0.0165323
737.717	0.0166196
737.795	0.0167234
737.873	0.0167103
737.951	0.0165618
738.030	0.0165879
738.108	0.0167668
738.186	0.0167886
738.264	0.0166911
738.342	0.0166549
738.420	0.0166161
738.498	0.0167368
738.576	0.0164965
738.655	0.0163868
738.733	0.0164135
738.811	0.0163515
738.889	0.0161187
738.967	0.0161372
739.045	0.0160252
739.123	0.0160271
739.201	0.0160374
739.280	0.0160013
739.358	0.0159443
739.436	0.0160563
739.514	0.0161077
739.592	0.0160546
739.670	0.0160583
739.748	0.0161789
739.826	0.0162450
739.905	0.0162870
739.983	0.0162001
740.061	0.0162979
740.139	0.0164602
740.217	0.0164124
740.295	0.0164702
740.373	0.0164829
740.451	0.0163180
740.530	0.0165460
740.608	0.0166164
740.686	0.0166573
740.764	0.0165351
740.842	0.0165760
740.920	0.0166138
740.998	0.0167479
741.076	0.0167141
741.155	0.0166883
741.233	0.0166753
741.311	0.0166280
741.389	0.0166575
741.467	0.0166419
741.545	0.0165651
741.623	0.0164561
741.701	0.0166131
741.780	0.0165028
741.858	0.0165339
741.936	0.0164536
742.014	0.0165002
742.092	0.0163809
742.170	0.0163509
742.248	0.0163842
742.326	0.0164323
742.405	0.0164497
742.483	0.0163237
742.561	0.0164303
742.639	0.0162795
742.717	0.0163257
742.795	0.0163661
742.873	0.0166000
742.951	0.0164729
743.030	0.0164883
743.108	0.0164987
743.186	0.0166037
743.264	0.0165125
743.342	0.0164861
743.420	0.0166608
743.498	0.0165926
743.576	0.0166718
743.655	0.0166006
743.733	0.0163973
743.811	0.0164782
743.889	0.0164311
743.967	0.0164536
744.045	0.0163387
744.123	0.0163386
744.201	0.0162782
744.280	0.0163974
744.358	0.0162295
744.436	0.0165245
744.514	0.0163402
744.592	0.0163268
744.670	0.0163306
744.748	0.0163819
744.826	0.0163715
744.905	0.0164588
744.983	0.0164873
745.061	0.0164653
745.139	0.0167043
745.217	0.0168499
745.295	0.0167051
745.373	0.0167712
745.451	0.0167572
745.530	0.0167995
745.608	0.0168510
745.686	0.0167966
745.764	0.0167899
745.842	0.0167152
745.920	0.0168635
745.998	0.0166789
746.076	0.0164633
746.155	0.0163150
746.233	0.0162687
746.311	0.0162540
746.389	0.0162041
746.467	0.0161253
746.545	0.0162054
746.623	0.0160374
746.701	0.0158002
746.780	0.0160100
746.858	0.0160014
746.936	0.0159086
747.014	0.0159641
747.092	0.0160371
747.170	0.0159867
747.248	0.0163070
747.326	0.0162659
747.405	0.0160988
747.483	0.0162254
747.561	0.0163500
747.639	0.0163573
747.717	0.0165689
747.795	0.0165308
747.873	0.0164993
747.951	0.0164194
748.030	0.0165952
748.108	0.0166077
748.186	0.0167352
748.264	0.0166393
748.342	0.0168285
748.420	0.0167781
748.498	0.0168359
748.576	0.0166660
748.655	0.0168710
748.733	0.0168084
748.811	0.0168468
748.889	0.0170114
748.967	0.0169111
749.045	0.0168328
749.123	0.0166411
749.201	0.0167396
749.280	0.0167936
749.358	0.0166046
749.436	0.0165355
749.514	0.0166065
749.592	0.0163705
749.670	0.0164621
749.748	0.0162823
749.826	0.0162925
749.905	0.0162132
749.983	0.0162409
750.061	0.0161552
750.139	0.0160909
750.217	0.0161182
750.295	0.0161640
750.373	0.0159835
750.451	0.0160023
750.530	0.0161600
750.608	0.0162363
750.686	0.0163940
750.764	0.0162770
750.842	0.0164005
750.920	0.0163982
750.998	0.0165363
751.076	0.0165567
751.155	0.0164928
751.233	0.0165408
751.311	0.0166161
751.389	0.0165919
751.467	0.0165296
751.545	0.0165977
751.623	0.0165504
751.701	0.0164790
751.780	0.0163416
751.858	0.0164849
751.936	0.0164069
752.014	0.0162605
752.092	0.0162905
752.170	0.0162090
752.248	0.0160497
752.326	0.0161613
752.405	0.0161584
752.483	0.0161761
752.561	0.0161337
752.639	0.0161012
752.717	0.0160461
752.795	0.0161210
752.873	0.0163632
752.951	0.0165728
753.030	0.0164539
753.108	0.0164775
753.186	0.0166244
753.264	0.0166597
753.342	0.0167794
753.420	0.0170023
753.498	0.0168871
753.576	0.0167353
753.655	0.0169753
753.733	0.0167744
753.811	0.0169434
753.889	0.0167706
753.967	0.0167096
754.045	0.0167627
754.123	0.0164117
754.201	0.0167011
754.280	0.0164555
754.358	0.0162647
754.436	0.0162550
754.514	0.0162038
754.592	0.0162814
754.670	0.0161436
754.748	0.0159956
754.826	0.0160933
754.905	0.0162246
754.983	0.0161196
755.061	0.0161647
755.139	0.0162553
755.217	0.0163426
755.295	0.0162413
755.373	0.0163387
755.451	0.0164421
755.530	0.0164542
755.608	0.0164635
755.686	0.0165885
755.764	0.0166449
755.842	0.0166277
755.920	0.0168224
755.998	0.0167104
756.076	0.0168179
756.155	0.0168705
756.233	0.0169084
756.311	0.0168632
756.389	0.0167210
756.467	0.0167483
756.545	0.0168710
756.623	0.0167978
756.701	0.0167820
756.780	0.0167283
756.858	0.0167265
756.936	0.0166549
757.014	0.0166854
757.092	0.0167136
757.170	0.0166556
757.248	0.0166514
757.326	0.0165522
757.405	0.0166087
757.483	0.0166130
757.561	0.0164895
757.639	0.0164379
757.717	0.0164642
757.795	0.0164331
757.873	0.0164628
757.951	0.0164130
758.030	0.0165034
758.108	0.0163840
758.186	0.0164223
758.264	0.0165297
758.342	0.0165462
758.420	0.0166174
758.498	0.0166849
758.576	0.0166747
758.655	0.0166354
758.733	0.0165059
758.811	0.0167582
758.889	0.0167206
758.967	0.0165331
759.045	0.0168272
759.123	0.0167706
759.201	0.0165873
759.280	0.0166786
759.358	0.0166182
759.436	0.0166354
759.514	0.0164507
759.592	0.0165341
759.670	0.0165030
759.748	0.0164498
759.826	0.0163162
759.905	0.0161038
759.983	0.0161997
760.061	0.0161829
760.139	0.0160839
760.217	0.0160441
760.295	0.0161125
760.373	0.0160318
760.451	0.0159751
760.530	0.0160948
760.608	0.0161219
760.686	0.0161470
760.764	0.0161414
760.842	0.0161047
760.920	0.0163068
760.998	0.0164632
761.076	0.0164411
761.155	0.0162072
761.233	0.0164874
761.311	0.0162746
761.389	0.0163187
761.467	0.0164176
761.545	0.0164283
761.623	0.0163657
761.701	0.0163875
761.780	0.0163233
761.858	0.0162061
761.936	0.0161139
762.014	0.0161916
762.092	0.0162064
762.170	0.0163290
762.248	0.0160971
762.326	0.0159372
762.405	0.0160513
762.483	0.0161819
762.561	0.0160514
762.639	0.0160221
762.717	0.0162772
762.795	0.0161548
762.873	0.0161443
762.951	0.0163641
763.030	0.0163979
763.108	0.0163548
763.186	0.0164921
763.264	0.0164680
763.342	0.0163833
763.420	0.0166178
763.498	0.0166167
763.576	0.0165659
763.655	0.0167049
763.733	0.0167950
763.811	0.0165924
763.889	0.0167894
763.967	0.0166234
764.045	0.0166355
764.123	0.0166143
764.201	0.0165263
764.280	0.0166658
764.358	0.0166349
764.436	0.0165136
764.514	0.0163937
764.592	0.0164765
764.670	0.0164464
764.748	0.0164965
764.826	0.0165458
764.905	0.0164350
764.983	0.0163336
765.061	0.0163805
765.139	0.0162705
765.217	0.0163657
765.295	0.0162428
765.373	0.0162052
765.451	0.0162344
765.530	0.0161488
765.608	0.0160673
765.686	0.0160080
765.764	0.0158862
765.842	0.0160963
765.920	0.0161899
765.998	0.0161112
766.076	0.0160219
766.155	0.0161719
766.233	0.0161763
766.311	0.0160884
766.389	0.0162160
766.467	0.0164083
766.545	0.0163335
766.623	0.0163317
766.701	0.0163393
766.780	0.0164095
766.858	0.0165067
766.936	0.0167661
767.014	0.0166698
767.092	0.0167488
767.170	0.0167210
767.248	0.0166501
767.326	0.0166807
767.405	0.0167200
767.483	0.0168131
767.561	0.0168609
767.639	0.0166109
767.717	0.0166017
767.795	0.0164846
767.873	0.0163558
767.951	0.0164969
768.030	0.0164148
768.108	0.0162859
768.186	0.0162237
768.264	0.0161913
768.342	0.0161466
768.420	0.0161513
768.498	0.0162124
768.576	0.0160940
768.655	0.0160697
768.733	0.0161310
768.811	0.0162473
768.889	0.0164231
768.967	0.0163305
769.045	0.0164114
769.123	0.0165165
769.201	0.0164878
769.280	0.0163725
769.358	0.0164562
769.436	0.0166502
769.514	0.0165957
769.592	0.0165183
769.670	0.0164647
769.748	0.0165076
769.826	0.0165414
769.905	0.0165422
769.983	0.0165229
770.061	0.0163017
770.139	0.0165061
770.217	0.0164993
770.295	0.0163793
770.373	0.0164857
770.451	0.0164043
770.530	0.0163021
770.608	0.0164279
770.686	0.0165330
770.764	0.0164115
770.842	0.0165487
770.920	0.0164137
770.998	0.0165147
771.076	0.0165686
771.155	0.0166148
771.233	0.0167779
771.311	0.0167057
771.389	0.0167271
771.467	0.0167562
771.545	0.0168669
771.623	0.0168283
771.701	0.0166680
771.780	0.0168343
771.858	0.0167084
771.936	0.0165807
772.014	0.0167168
772.092	0.0166868
772.170	0.0166345
772.248	0.0168303
772.326	0.0166310
772.405	0.0165472
772.483	0.0165125
772.561	0.0166308
772.639	0.0165886
772.717	0.0164501
772.795	0.0165454
772.873	0.0165732
772.951	0.0164510
773.030	0.0165114
773.108	0.0166151
773.186	0.0164976
773.264	0.0166129
773.342	0.0165646
773.420	0.0165119
773.498	0.0164543
773.576	0.0165240
773.655	0.0164642
773.733	0.0164928
773.811	0.0164306
773.889	0.0164693
773.967	0.0165302
774.045	0.0163258
774.123	0.0164632
774.201	0.0163634
774.280	0.0166359
774.358	0.0165628
774.436	0.0164751
774.514	0.0164767
774.592	0.0164983
774.670	0.0165352
774.748	0.0164822
774.826	0.0164639
774.905	0.0165804
774.983	0.0165753
775.061	0.0166188
775.139	0.0164811
775.217	0.0164778
775.295	0.0164824
775.373	0.0164871
775.451	0.0166134
775.530	0.0165137
775.608	0.0165192
775.686	0.0164621
775.764	0.0164171
775.842	0.0163397
775.920	0.0163367
775.998	0.0165044
776.076	0.0164447
776.155	0.0163985
776.233	0.0164241
776.311	0.0165155
776.389	0.0165042
776.467	0.0163363
776.545	0.0165708
776.623	0.0165472
776.701	0.0164159
776.780	0.0164999
776.858	0.0167715
776.936	0.0165465
777.014	0.0166659
777.092	0.0165740
777.170	0.0165908
777.248	0.0166317
777.326	0.0166705
777.405	0.0165463
777.483	0.0164771
777.561	0.0165375
777.639	0.0165010
777.717	0.0165898
777.795	0.0164236
777.873	0.0164561
777.951	0.0164630
778.030	0.0162189
778.108	0.0163239
778.186	0.0164306
778.264	0.0163083
778.342	0.0164858
778.420	0.0163873
778.498	0.0164666
778.576	0.0164289
778.655	0.0165018
778.733	0.0166042
778.811	0.0165496
778.889	0.0165901
778.967	0.0165102
779.045	0.0166283
779.123	0.0167142
779.201	0.0166219
779.280	0.0165870
779.358	0.0167490
779.436	0.0166462
779.514	0.0166252
779.592	0.0167927
779.670	0.0166805
779.748	0.0166977
779.826	0.0167512
779.905	0.0167115
779.983	0.0167603
780.061	0.0167020
780.139	0.0167003
780.217	0.0168046
780.295	0.0167256
780.373	0.0166227
780.451	0.0166356
780.530	0.0166338
780.608	0.0165398
780.686	0.0165194
780.764	0.0166611
780.842	0.0165530
780.920	0.0165395
780.998	0.0164779
781.076	0.0164590
781.155	0.0164124
781.233	0.0162867
781.311	0.0164018
781.389	0.0164039
781.467	0.0162613
781.545	0.0163828
781.623	0.0162870
781.701	0.0164146
781.780	0.0164529
781.858	0.0164157
781.936	0.0163754
782.014	0.0163989
782.092	0.0162864
782.170	0.0165068
782.248	0.0164721
782.326	0.0164339
782.405	0.0163568
782.483	0.0165739
782.561	0.0164990
782.639	0.0165398
782.717	0.0164933
782.795	0.0165231
782.873	0.0166192
782.951	0.0165469
783.030	0.0164229
783.108	0.0165739
783.186	0.0164808
783.264	0.0165098
783.342	0.0164680
783.420	0.0163997
783.498	0.0163793
783.576	0.0163877
783.655	0.0162079
783.733	0.0163982
783.811	0.0163396
783.889	0.0163837
783.967	0.0165880
784.045	0.0163689
784.123	0.0163393
784.201	0.0162931
784.280	0.0163979
784.358	0.0165107
784.436	0.0163987
784.514	0.0165623
784.592	0.0165814
784.670	0.0164631
784.748	0.0165447
784.826	0.0165537
784.905	0.0164695
784.983	0.0164841
785.061	0.0165543
785.139	0.0163557
785.217	0.0163438
785.295	0.0165615
785.373	0.0164325
785.451	0.0162588
785.530	0.0162278
785.608	0.0162636
785.686	0.0162028
785.764	0.0162560
785.842	0.0162453
785.920	0.0162495
785.998	0.0163516
786.076	0.0163834
786.155	0.0163305
786.233	0.0162611
786.311	0.0163027
786.389	0.0163435
786.467	0.0163838
786.545	0.0162319
786.623	0.0163036
786.701	0.0163039
786.780	0.0163450
786.858	0.0162978
786.936	0.0162716
787.014	0.0163985
787.092	0.0163629
787.170	0.0162699
787.248	0.0161953
787.326	0.0161994
787.405	0.0162682
787.483	0.0161719
787.561	0.0161063
787.639	0.0161945
787.717	0.0162234
787.795	0.0161582
787.873	0.0163142
787.951	0.0163089
788.030	0.0163304
788.108	0.0161908
788.186	0.0164725
788.264	0.0162902
788.342	0.0161567
788.420	0.0162280
788.498	0.0162759
788.576	0.0161646
788.655	0.0163164
788.733	0.0164127
788.811	0.0163152
788.889	0.0162465
788.967	0.0162672
789.045	0.0162902
789.123	0.0162501
789.201	0.0162750
789.280	0.0163497
789.358	0.0163432
789.436	0.0162450
789.514	0.0164789
789.592	0.0163887
789.670	0.0164503
789.748	0.0165654
789.826	0.0165155
789.905	0.0165182
789.983	0.0164872
790.061	0.0167260
790.139	0.0165539
790.217	0.0165591
790.295	0.0166177
790.373	0.0166148
790.451	0.0166655
790.530	0.0167624
790.608	0.0166274
790.686	0.0165367
790.764	0.0165188
790.842	0.0165797
790.920	0.0164533
790.998	0.0164912
791.076	0.0164988
791.155	0.0164541
791.233	0.0163790
791.311	0.0163276
791.389	0.0163111
791.467	0.0161871
791.545	0.0161428
791.623	0.0162207
791.701	0.0161891
791.780	0.0159561
791.858	0.0160574
791.936	0.0162363
792.014	0.0160978
792.092	0.0160027
792.170	0.0162497
792.248	0.0161302
792.326	0.0161374
792.405	0.0161102
792.483	0.0160984
792.561	0.0160032
792.639	0.0161508
792.717	0.0161890
792.795	0.0161587
792.873	0.0160630
792.951	0.0161491
793.030	0.0161189
793.108	0.0160439
793.186	0.0160066
793.264	0.0159260
793.342	0.0160330
793.420	0.0161703
793.498	0.0159297
793.576	0.0159888
793.655	0.0160527
793.733	0.0160635
793.811	0.0161265
793.889	0.0161223
793.967	0.0161414
794.045	0.0163499
794.123	0.0161976
794.201	0.0163983
794.280	0.0164252
794.358	0.0165218
794.436	0.0166122
794.514	0.0168671
794.592	0.0168032
794.670	0.0168046
794.748	0.0167605
794.826	0.0169344
794.905	0.0169098
794.983	0.0168733
795.061	0.0169305
795.139	0.0169701
795.217	0.0170772
795.295	0.0169912
795.373	0.0169744
795.451	0.0169990
795.530	0.0169129
795.608	0.0169768
795.686	0.0168721
795.764	0.0167912
795.842	0.0167991
795.920	0.0168148
795.998	0.0167101
796.076	0.0167006
796.155	0.0167710
796.233	0.0167171
796.311	0.0165661
796.389	0.0166013
796.467	0.0165195
796.545	0.0164197
796.623	0.0165124
796.701	0.0165655
796.780	0.0164872
796.858	0.0163615
796.936	0.0163593
797.014	0.0163528
797.092	0.0163772
797.170	0.0163609
797.248	0.0163629
797.326	0.0162963
797.405	0.0163652
797.483	0.0163747
797.561	0.0165312
797.639	0.0163303
797.717	0.0164270
797.795	0.0164748
797.873	0.0164427
797.951	0.0164589
798.030	0.0165124
798.108	0.0165351
798.186	0.0164434
798.264	0.0164948
798.342	0.0163407
798.420	0.0165744
798.498	0.0166169
798.576	0.0165105
798.655	0.0164897
798.733	0.0164995
798.811	0.0163976
798.889	0.0163787
798.967	0.0164084
799.045	0.0163462
799.123	0.0162289
799.201	0.0161349
799.280	0.0162557
799.358	0.0162968
799.436	0.0161749
799.514	0.0161978
799.592	0.0160712
799.670	0.0162743
799.748	0.0162961
799.826	0.0160549
799.905	0.0162154
799.983	0.0162850
800.061	0.0163360
800.139	0.0164397
800.217	0.0163171
800.295	0.0162802
800.373	0.0163938
800.451	0.0164909
800.530	0.0164633
800.608	0.0164528
800.686	0.0164832
800.764	0.0165739
800.842	0.0166274
800.920	0.0165327
800.998	0.0166969
801.076	0.0166595
801.155	0.0166969
801.233	0.0168013
801.311	0.0166885
801.389	0.0167125
801.467	0.0167880
801.545	0.0167203
801.623	0.0166351
801.701	0.0167239
801.780	0.0168235
801.858	0.0167825
801.936	0.0166986
802.014	0.0167229
802.092	0.0168374
802.170	0.0168436
802.248	0.0168337
802.326	0.0169199
802.405	0.0167628
802.483	0.0169189
802.561	0.0168677
802.639	0.0168684
802.717	0.0166696
802.795	0.0168226
802.873	0.0169308
802.951	0.0167463
803.030	0.0167793
803.108	0.0166510
803.186	0.0167464
803.264	0.0166913
803.342	0.0166314
803.420	0.0166255
803.498	0.0165559
803.576	0.0166045
803.655	0.0164568
803.733	0.0165782
803.811	0.0164873
803.889	0.0165001
803.967	0.0164455
804.045	0.0162591
804.123	0.0163042
804.201	0.0163035
804.280	0.0162031
804.358	0.0161595
804.436	0.0162424
804.514	0.0162888
804.592	0.0161543
804.670	0.0160526
804.748	0.0161202
804.826	0.0160453
804.905	0.0161621
804.983	0.0160724
805.061	0.0159562
805.139	0.0160921
805.217	0.0160710
805.295	0.0160379
805.373	0.0161024
805.451	0.0161820
805.530	0.0161443
805.608	0.0162251
805.686	0.0162643
805.764	0.0164009
805.842	0.0163447
805.920	0.0164371
805.998	0.0165207
806.076	0.0166465
806.155	0.0166877
806.233	0.0167250
806.311	0.0168985
806.389	0.0167573
806.467	0.0166983
806.545	0.0167581
806.623	0.0168171
806.701	0.0168006
806.780	0.0167216
806.858	0.0167554
806.936	0.0168491
807.014	0.0166711
807.092	0.0165983
807.170	0.0165098
807.248	0.0165501
807.326	0.0165238
807.405	0.0165383
807.483	0.0164041
807.561	0.0163931
807.639	0.0163209
807.717	0.0163880
807.795	0.0164178
807.873	0.0164818
807.951	0.0163368
808.030	0.0163818
808.108	0.0163454
808.186	0.0164231
808.264	0.0165141
808.342	0.0164747
808.420	0.0163757
808.498	0.0165661
808.576	0.0165559
808.655	0.0165163
808.733	0.0166206
808.811	0.0166243
808.889	0.0165466
808.967	0.0162744
809.045	0.0164553
809.123	0.0164387
809.201	0.0163222
809.280	0.0164534
809.358	0.0161964
809.436	0.0163882
809.514	0.0163624
809.592	0.0161929
809.670	0.0162933
809.748	0.0161744
809.826	0.0162635
809.905	0.0160890
809.983	0.0161732
810.061	0.0163667
810.139	0.0162922
810.217	0.0162478
810.295	0.0161823
810.373	0.0163531
810.451	0.0162595
810.530	0.0164121
810.608	0.0165124
810.686	0.0163508
810.764	0.0165208
810.842	0.0165713
810.920	0.0165237
810.998	0.0165801
811.076	0.0163879
811.155	0.0164591
811.233	0.0164821
811.311	0.0165523
811.389	0.0167056
811.467	0.0166570
811.545	0.0166616
811.623	0.0166136
811.701	0.0166855
811.780	0.0165789
811.858	0.0165054
811.936	0.0167392
812.014	0.0166344
812.092	0.0167265
812.170	0.0166721
812.248	0.0166307
812.326	0.0166434
812.405	0.0164926
812.483	0.0165993
812.561	0.0167271
812.639	0.0165119
812.717	0.0167197
812.795	0.0166648
812.873	0.0166915
812.951	0.0165710
813.030	0.0165469
813.108	0.0166043
813.186	0.0166511
813.264	0.0166228
813.342	0.0165935
813.420	0.0167175
813.498	0.0166308
813.576	0.0165275
813.655	0.0165402
813.733	0.0164445
813.811	0.0167089
813.889	0.0167047
813.967	0.0165794
814.045	0.0166582
814.123	0.0166187
814.201	0.0165695
814.280	0.0166862
814.358	0.0166232
814.436	0.0167989
814.514	0.0167317
814.592	0.0168422
814.670	0.0166829
814.748	0.0167065
814.826	0.0167348
814.905	0.0166345
814.983	0.0167068
815.061	0.0167407
815.139	0.0166817
815.217	0.0165314
815.295	0.0165936
815.373	0.0165862
815.451	0.0165323
815.530	0.0165745
815.608	0.0165140
815.686	0.0164592
815.764	0.0165365
815.842	0.0164145
815.920	0.0164202
815.998	0.0165318
816.076	0.0163902
816.155	0.0164879
816.233	0.0165124
816.311	0.0164690
816.389	0.0166160
816.467	0.0164809
816.545	0.0165427
816.623	0.0164084
816.701	0.0164432
816.780	0.0168015
816.858	0.0165620
816.936	0.0165992
817.014	0.0165879
817.092	0.0166282
817.170	0.0164764
817.248	0.0164675
817.326	0.0165067
817.405	0.0165204
817.483	0.0165565
817.561	0.0165604
817.639	0.0164806
817.717	0.0163731
817.795	0.0163625
817.873	0.0165296
817.951	0.0166048
818.030	0.0164027
818.108	0.0163097
818.186	0.0165720
818.264	0.0165602
818.342	0.0162786
818.420	0.0164557
818.498	0.0164953
818.576	0.0164208
818.655	0.0165723
818.733	0.0165868
818.811	0.0165073
818.889	0.0165342
818.967	0.0165865
819.045	0.0165587
819.123	0.0166503
819.201	0.0167439
819.280	0.0163545
819.358	0.0165413
819.436	0.0165657
819.514	0.0165114
819.592	0.0165175
819.670	0.0164503
819.748	0.0164362
819.826	0.0165562
819.905	0.0163226
819.983	0.0163026
820.061	0.0163222
820.139	0.0164165
820.217	0.0164601
820.295	0.0163440
820.373	0.0162856
820.451	0.0162803
820.530	0.0164114
820.608	0.0164390
820.686	0.0162355
820.764	0.0162498
820.842	0.0163936
820.920	0.0163315
820.998	0.0163628
821.076	0.0163433
821.155	0.0164188
821.233	0.0164212
821.311	0.0163761
821.389	0.0162799
821.467	0.0163920
821.545	0.0164488
821.623	0.0164014
821.701	0.0163062
821.780	0.0163348
821.858	0.0164154
821.936	0.0163969
822.014	0.0165353
822.092	0.0165124
822.170	0.0163776
822.248	0.0163546
822.326	0.0164369
822.405	0.0164523
822.483	0.0163685
822.561	0.0164407
822.639	0.0163921
822.717	0.0162547
822.795	0.0164203
822.873	0.0162027
822.951	0.0164714
823.030	0.0163986
823.108	0.0163673
823.186	0.0164273
823.264	0.0163211
823.342	0.0163687
823.420	0.0162913
823.498	0.0162452
823.576	0.0163529
823.655	0.0162749
823.733	0.0162859
823.811	0.0163329
823.889	0.0162577
823.967	0.0163129
824.045	0.0162761
824.123	0.0161908
824.201	0.0164846
824.280	0.0162203
824.358	0.0161803
824.436	0.0162924
824.514	0.0163609
824.592	0.0163235
824.670	0.0163770
824.748	0.0164468
824.826	0.0164098
824.905	0.0162864
824.983	0.0164185
825.061	0.0164736
825.139	0.0164997
825.217	0.0164446
825.295	0.0164964
825.373	0.0164707
825.451	0.0164088
825.530	0.0163908
825.608	0.0164606
825.686	0.0165373
825.764	0.0163747
825.842	0.0165453
825.920	0.0163921
825.998	0.0163032
826.076	0.0164885
826.155	0.0164116
826.233	0.0163898
826.311	0.0163815
826.389	0.0165626
826.467	0.0165475
826.545	0.0165010
826.623	0.0164645
826.701	0.0163416
826.780	0.0164854
826.858	0.0165749
826.936	0.0166483
827.014	0.0165463
827.092	0.0165446
827.170	0.0165807
827.248	0.0165900
827.326	0.0165582
827.405	0.0164845
827.483	0.0163606
827.561	0.0164711
827.639	0.0163897
827.717	0.0162608
827.795	0.0163799
827.873	0.0165001
827.951	0.0163364
828.030	0.0164106
828.108	0.0164545
828.186	0.0165055
828.264	0.0165151
828.342	0.0164336
828.420	0.0164254
828.498	0.0163182
828.576	0.0163272
828.655	0.0163500
828.733	0.0164416
828.811	0.0163757
828.889	0.0163256
828.967	0.0163972
829.045	0.0164405
829.123	0.0163454
829.201	0.0163451
829.280	0.0163840
829.358	0.0163636
829.436	0.0165391
829.514	0.0164957
829.592	0.0165160
829.670	0.0164368
829.748	0.0162959
829.826	0.0164255
829.905	0.0164201
829.983	0.0165299
830.061	0.0165089
830.139	0.0164677
830.217	0.0163949
830.295	0.0164973
830.373	0.0163629
830.451	0.0164027
830.530	0.0165189
830.608	0.0163972
830.686	0.0163708
830.764	0.0164276
830.842	0.0165195
830.920	0.0165931
830.998	0.0165062
831.076	0.0166676
831.155	0.0166241
831.233	0.0166776
831.311	0.0166370
831.389	0.0166615
831.467	0.0169069
831.545	0.0167374
831.623	0.0167931
831.701	0.0167981
831.780	0.0166801
831.858	0.0166500
831.936	0.0168472
832.014	0.0166656
832.092	0.0168026
832.170	0.0165656
832.248	0.0165969
832.326	0.0165948
832.405	0.0164173
832.483	0.0165508
832.561	0.0164827
832.639	0.0164504
832.717	0.0163875
832.795	0.0164574
832.873	0.0165012
832.951	0.0165441
833.030	0.0166010
833.108	0.0164647
833.186	0.0165050
833.264	0.0165134
833.342	0.0165156
833.420	0.0165327
833.498	0.0166075
833.576	0.0165548
833.655	0.0165510
833.733	0.0165716
833.811	0.0165442
833.889	0.0167335
833.967	0.0165047
834.045	0.0165428
834.123	0.0164388
834.201	0.0166944
834.280	0.0166860
834.358	0.0165749
834.436	0.0167376
834.514	0.0167087
834.592	0.0166901
834.670	0.0167696
834.748	0.0167806
834.826	0.0167307
834.905	0.0168322
834.983	0.0165148
835.061	0.0168248
835.139	0.0167966
835.217	0.0166496
835.295	0.0165598
835.373	0.0166914
835.451	0.0167824
835.530	0.0166769
835.608	0.0166743
835.686	0.0167725
835.764	0.0167204
835.842	0.0167628
835.920	0.0168153
835.998	0.0168233
836.076	0.0166444
836.155	0.0168683
836.233	0.0168345
836.311	0.0168826
836.389	0.0168020
836.467	0.0167731
836.545	0.0168430
836.623	0.0167075
836.701	0.0165323
836.780	0.0165836
836.858	0.0165504
836.936	0.0165263
837.014	0.0163208
837.092	0.0163022
837.170	0.0162423
837.248	0.0163809
837.326	0.0163002
837.405	0.0162151
837.483	0.0163061
837.561	0.0163773
837.639	0.0163066
837.717	0.0163740
837.795	0.0166129
837.873	0.0165990
837.951	0.0166505
838.030	0.0166801
838.108	0.0168631
838.186	0.0166920
838.264	0.0168545
838.342	0.0168050
838.420	0.0168518
838.498	0.0167693
838.576	0.0167534
838.655	0.0166764
838.733	0.0166908
838.811	0.0165917
838.889	0.0165385
838.967	0.0165636
839.045	0.0163852
839.123	0.0164808
839.201	0.0164419
839.280	0.0165448
839.358	0.0165125
839.436	0.0164372
839.514	0.0165060
839.592	0.0164787
839.670	0.0165252
839.748	0.0163025
839.826	0.0163512
839.905	0.0163422
839.983	0.0164371
840.061	0.0164972
840.139	0.0164690
840.217	0.0165000
840.295	0.0164085
840.373	0.0162920
840.451	0.0163490
840.530	0.0163184
840.608	0.0163515
840.686	0.0161958
840.764	0.0163778
840.842	0.0163038
840.920	0.0162556
840.998	0.0162200
841.076	0.0162624
841.155	0.0163010
841.233	0.0162361
841.311	0.0163668
841.389	0.0163097
841.467	0.0163657
841.545	0.0162552
841.623	0.0162144
841.701	0.0162360
841.780	0.0163632
841.858	0.0164770
841.936	0.0163566
842.014	0.0165406
842.092	0.0163255
842.170	0.0162727
842.248	0.0165620
842.326	0.0164622
842.405	0.0164879
842.483	0.0164207
842.561	0.0165090
842.639	0.0165107
842.717	0.0164538
842.795	0.0166281
842.873	0.0165347
842.951	0.0165961
843.030	0.0165832
843.108	0.0165984
843.186	0.0166565
843.264	0.0164931
843.342	0.0165543
843.420	0.0165266
843.498	0.0163506
843.576	0.0164291
843.655	0.0164964
843.733	0.0166219
843.811	0.0164053
843.889	0.0164414
843.967	0.0163526
844.045	0.0164424
844.123	0.0163403
844.201	0.0162987
844.280	0.0164379
844.358	0.0165750
844.436	0.0164880
844.514	0.0163589
844.592	0.0164230
844.670	0.0164362
844.748	0.0164455
844.826	0.0163313
844.905	0.0163683
844.983	0.0163393
845.061	0.0163837
845.139	0.0164711
845.217	0.0164716
845.295	0.0164139
845.373	0.0164896
845.451	0.0165089
845.530	0.0164506
845.608	0.0163717
845.686	0.0164825
845.764	0.0163811
845.842	0.0163633
845.920	0.0163874
845.998	0.0164002
846.076	0.0163030
846.155	0.0164057
846.233	0.0165150
846.311	0.0164301
846.389	0.0163781
846.467	0.0165469
846.545	0.0164921
846.623	0.0165173
846.701	0.0164433
846.780	0.0164289
846.858	0.0164678
846.936	0.0164648
847.014	0.0165115
847.092	0.0164729
847.170	0.0164001
847.248	0.0164553
847.326	0.0164938
847.405	0.0165232
847.483	0.0165135
847.561	0.0164456
847.639	0.0165140
847.717	0.0164928
847.795	0.0164863
847.873	0.0164687
847.951	0.0165704
848.030	0.0166079
848.108	0.0165013
848.186	0.0165363
848.264	0.0165198
848.342	0.0165430
848.420	0.0165487
848.498	0.0164923
848.576	0.0166415
848.655	0.0166579
848.733	0.0165274
848.811	0.0165121
848.889	0.0164806
848.967	0.0164392
849.045	0.0163565
849.123	0.0163766
849.201	0.0164783
849.280	0.0163427
849.358	0.0164616
849.436	0.0163084
849.514	0.0163965
849.592	0.0164184
849.670	0.0162955
849.748	0.0164728
849.826	0.0166298
849.905	0.0164594
849.983	0.0164230
850.061	0.0163855
850.139	0.0164632
850.217	0.0165166
850.295	0.0165724
850.373	0.0164796
850.451	0.0165408
850.530	0.0166795
850.608	0.0164264
850.686	0.0165125
850.764	0.0163487
850.842	0.0164619
850.920	0.0164938
850.998	0.0163407
851.076	0.0161610
851.155	0.0162681
851.233	0.0162528
851.311	0.0161000
851.389	0.0163296
851.467	0.0161902
851.545	0.0162262
851.623	0.0162023
851.701	0.0161855
851.780	0.0160236
851.858	0.0162474
851.936	0.0163128
852.014	0.0160516
852.092	0.0160624
852.170	0.0160548
852.248	0.0162871
852.326	0.0163931
852.405	0.0161374
852.483	0.0162582
852.561	0.0162054
852.639	0.0161919
852.717	0.0162106
852.795	0.0161949
852.873	0.0163030
852.951	0.0162981
853.030	0.0163612
853.108	0.0162624
853.186	0.0163850
853.264	0.0163153
853.342	0.0163537
853.420	0.0164288
853.498	0.0163883
853.576	0.0162628
853.655	0.0163737
853.733	0.0163956
853.811	0.0164437
853.889	0.0164161
853.967	0.0163896
854.045	0.0163539
854.123	0.0164548
854.201	0.0165630
854.280	0.0165233
854.358	0.0164944
854.436	0.0165094
854.514	0.0164510
854.592	0.0163982
854.670	0.0164147
854.748	0.0165483
854.826	0.0165709
854.905	0.0165484
854.983	0.0165014
855.061	0.0165468
855.139	0.0166044
855.217	0.0165897
855.295	0.0165246
855.373	0.0165506
855.451	0.0164905
855.530	0.0165640
855.608	0.0166244
855.686	0.0165860
855.764	0.0165674
855.842	0.0166384
855.920	0.0165230
855.998	0.0165702
856.076	0.0166607
856.155	0.0166688
856.233	0.0165137
856.311	0.0167229
856.389	0.0167358
856.467	0.0166031
856.545	0.0165349
856.623	0.0165337
856.701	0.0162938
856.780	0.0165444
856.858	0.0165797
856.936	0.0165270
857.014	0.0164430
857.092	0.0165504
857.170	0.0165450
857.248	0.0164026
857.326	0.0165491
857.405	0.0166303
857.483	0.0166523
857.561	0.0165863
857.639	0.0165592
857.717	0.0166251
857.795	0.0166294
857.873	0.0167782
857.951	0.0167429
858.030	0.0166179
858.108	0.0167355
858.186	0.0167839
858.264	0.0167607
858.342	0.0166192
858.420	0.0167319
858.498	0.0168092
858.576	0.0167429
858.655	0.0168230
858.733	0.0168337
858.811	0.0167705
858.889	0.0166574
858.967	0.0165639
859.045	0.0167527
859.123	0.0166534
859.201	0.0165598
859.280	0.0166025
859.358	0.0166172
859.436	0.0165907
859.514	0.0164833
859.592	0.0165771
859.670	0.0164319
859.748	0.0164897
859.826	0.0165542
859.905	0.0164226
859.983	0.0163352
860.061	0.0164408
860.139	0.0164612
860.217	0.0163503
860.295	0.0164763
860.373	0.0163621
860.451	0.0164456
860.530	0.0165101
860.608	0.0163983
860.686	0.0164189
860.764	0.0166187
860.842	0.0164661
860.920	0.0164591
860.998	0.0165083
861.076	0.0165480
861.155	0.0166243
861.233	0.0165347
861.311	0.0167643
861.389	0.0165218
861.467	0.0165734
861.545	0.0167129
861.623	0.0167009
861.701	0.0166295
861.780	0.0167133
861.858	0.0165820
861.936	0.0165478
862.014	0.0166840
862.092	0.0166264
862.170	0.0165750
862.248	0.0167126
862.326	0.0164868
862.405	0.0165656
862.483	0.0164774
862.561	0.0165895
862.639	0.0163531
862.717	0.0163147
862.795	0.0164735
862.873	0.0164918
862.951	0.0164281
863.030	0.0162672
863.108	0.0162432
863.186	0.0163033
863.264	0.0163147
863.342	0.0163927
863.420	0.0164581
863.498	0.0164812
863.576	0.0163541
863.655	0.0162980
863.733	0.0164319
863.811	0.0163578
863.889	0.0163087
863.967	0.0162488
864.045	0.0163268
864.123	0.0163753
864.201	0.0163622
864.280	0.0163003
864.358	0.0162056
864.436	0.0164519
864.514	0.0162704
864.592	0.0162973
864.670	0.0162627
864.748	0.0163506
864.826	0.0163159
864.905	0.0163418
864.983	0.0163088
865.061	0.0162891
865.139	0.0162783
865.217	0.0165046
865.295	0.0164433
865.373	0.0164548
865.451	0.0163335
865.530	0.0164942
865.608	0.0163776
865.686	0.0162936
865.764	0.0164393
865.842	0.0165056
865.920	0.0163782
865.998	0.0164307
866.076	0.0164568
866.155	0.0165630
866.233	0.0165041
866.311	0.0164547
866.389	0.0165340
866.467	0.0164754
866.545	0.0164359
866.623	0.0163910
866.701	0.0165549
866.780	0.0165755
866.858	0.0163098
866.936	0.0163810
867.014	0.0164939
867.092	0.0163976
867.170	0.0163575
867.248	0.0163232
867.326	0.0164781
867.405	0.0163838
867.483	0.0163369
867.561	0.0162635
867.639	0.0164095
867.717	0.0163295
867.795	0.0162805
867.873	0.0164194
867.951	0.0163999
868.030	0.0163380
868.108	0.0163345
868.186	0.0163441
868.264	0.0163860
868.342	0.0163946
868.420	0.0163543
868.498	0.0163640
868.576	0.0163135
868.655	0.0163962
868.733	0.0163240
868.811	0.0161818
868.889	0.0163201
868.967	0.0164185
869.045	0.0163721
869.123	0.0163610
869.201	0.0162936
869.280	0.0163161
869.358	0.0163740
869.436	0.0164151
869.514	0.0164116
869.592	0.0163490
869.670	0.0162930
869.748	0.0163462
869.826	0.0164642
869.905	0.0163275
869.983	0.0163336
870.061	0.0166120
870.139	0.0163941
870.217	0.0165780
870.295	0.0165700
870.373	0.0164859
870.451	0.0164935
870.530	0.0164928
870.608	0.0166993
870.686	0.0166068
870.764	0.0166010
870.842	0.0165875
870.920	0.0165958
870.998	0.0165540
871.076	0.0165719
871.155	0.0167107
871.233	0.0164964
871.311	0.0164576
871.389	0.0165955
871.467	0.0165800
871.545	0.0165868
871.623	0.0165415
871.701	0.0166338
871.780	0.0166308
871.858	0.0167525
871.936	0.0165809
872.014	0.0166817
872.092	0.0167118
872.170	0.0165646
872.248	0.0165116
872.326	0.0165194
872.405	0.0165745
872.483	0.0165675
872.561	0.0165530
872.639	0.0165850
872.717	0.0165364
872.795	0.0166204
872.873	0.0165412
872.951	0.0164851
873.030	0.0166022
873.108	0.0166051
873.186	0.0167108
873.264	0.0165889
873.342	0.0165585
873.420	0.0166815
873.498	0.0165863
873.576	0.0165424
873.655	0.0166786
873.733	0.0166720
873.811	0.0167500
873.889	0.0166673
873.967	0.0166126
874.045	0.0165923
874.123	0.0165851
874.201	0.0165970
874.280	0.0164846
874.358	0.0167223
874.436	0.0166827
874.514	0.0166875
874.592	0.0166415
874.670	0.0165742
874.748	0.0164999
874.826	0.0165912
874.905	0.0163854
874.983	0.0163842
875.061	0.0164056
875.139	0.0163679
875.217	0.0163869
875.295	0.0164543
875.373	0.0164375
875.451	0.0164577
875.530	0.0162747
875.608	0.0162517
875.686	0.0163297
875.764	0.0164371
875.842	0.0163847
875.920	0.0162446
875.998	0.0162905
876.076	0.0162097
876.155	0.0162389
876.233	0.0163653
876.311	0.0161616
876.389	0.0163043
876.467	0.0162914
876.545	0.0162305
876.623	0.0163906
876.701	0.0162407
876.780	0.0163261
876.858	0.0163882
876.936	0.0163139
877.014	0.0163766
877.092	0.0164600
877.170	0.0163895
877.248	0.0163115
877.326	0.0163734
877.405	0.0164072
877.483	0.0163583
877.561	0.0163464
877.639	0.0163840
877.717	0.0166022
877.795	0.0166106
877.873	0.0166754
877.951	0.0164738
878.030	0.0165786
878.108	0.0166382
878.186	0.0164272
878.264	0.0166254
878.342	0.0165862
878.420	0.0166904
878.498	0.0166032
878.576	0.0166412
878.655	0.0165270
878.733	0.0165302
878.811	0.0165753
878.889	0.0165704
878.967	0.0165127
879.045	0.0164204
879.123	0.0164065
879.201	0.0164546
879.280	0.0163753
879.358	0.0164182
879.436	0.0162136
879.514	0.0163073
879.592	0.0162428
879.670	0.0161814
879.748	0.0162531
879.826	0.0162917
879.905	0.0163407
879.983	0.0164198
880.061	0.0161816
880.139	0.0160307
880.217	0.0163109
880.295	0.0164063
880.373	0.0163324
880.451	0.0162684
880.530	0.0162417
880.608	0.0162908
880.686	0.0164262
880.764	0.0164368
880.842	0.0165428
880.920	0.0164404
880.998	0.0165334
881.076	0.0164963
881.155	0.0164945
881.233	0.0165057
881.311	0.0165356
881.389	0.0165365
881.467	0.0164102
881.545	0.0165712
881.623	0.0164941
881.701	0.0165514
881.780	0.0165284
881.858	0.0165746
881.936	0.0165453
882.014	0.0165383
882.092	0.0165275
882.170	0.0166215
882.248	0.0164433
882.326	0.0164996
882.405	0.0165101
882.483	0.0165099
882.561	0.0164289
882.639	0.0163354
882.717	0.0164212
882.795	0.0164108
882.873	0.0162424
882.951	0.0162014
883.030	0.0163253
883.108	0.0163956
883.186	0.0161595
883.264	0.0161976
883.342	0.0160479
883.420	0.0161336
883.498	0.0161654
883.576	0.0161610
883.655	0.0161860
883.733	0.0163383
883.811	0.0162600
883.889	0.0161941
883.967	0.0163558
884.045	0.0162989
884.123	0.0162885
884.201	0.0162657
884.280	0.0162022
884.358	0.0163312
884.436	0.0161771
884.514	0.0162907
884.592	0.0164146
884.670	0.0163767
884.748	0.0164238
884.826	0.0163992
884.905	0.0163959
884.983	0.0164449
885.061	0.0164095
885.139	0.0163214
885.217	0.0163735
885.295	0.0165211
885.373	0.0165734
885.451	0.0165192
885.530	0.0165253
885.608	0.0165719
885.686	0.0165231
885.764	0.0164725
885.842	0.0164600
885.920	0.0165450
885.998	0.0166286
886.076	0.0164897
886.155	0.0166536
886.233	0.0166357
886.311	0.0164691
886.389	0.0165810
886.467	0.0164676
886.545	0.0165632
886.623	0.0165202
886.701	0.0165256
886.780	0.0167911
886.858	0.0166078
886.936	0.0165121
887.014	0.0165054
887.092	0.0164909
887.170	0.0165076
887.248	0.0164878
887.326	0.0164405
887.405	0.0164572
887.483	0.0165472
887.561	0.0164208
887.639	0.0163844
887.717	0.0163389
887.795	0.0162487
887.873	0.0163849
887.951	0.0164437
888.030	0.0161728
888.108	0.0161756
888.186	0.0163324
888.264	0.0162171
888.342	0.0160900
888.420	0.0162292
888.498	0.0163197
888.576	0.0162166
888.655	0.0163158
888.733	0.0162800
888.811	0.0163248
888.889	0.0164457
888.967	0.0163496
889.045	0.0164046
889.123	0.0164420
889.201	0.0163188
889.280	0.0165523
889.358	0.0165162
889.436	0.0165379
889.514	0.0165569
889.592	0.0164440
889.670	0.0165762
889.748	0.0165142
889.826	0.0166521
889.905	0.0167155
889.983	0.0166504
890.061	0.0166337
890.139	0.0167119
890.217	0.0166338
890.295	0.0166650
890.373	0.0167269
890.451	0.0166191
890.530	0.0166396
890.608	0.0166325
890.686	0.0167966
890.764	0.0166543
890.842	0.0166135
890.920	0.0166344
890.998	0.0165211
891.076	0.0165786
891.155	0.0165059
891.233	0.0166084
891.311	0.0165926
891.389	0.0164125
891.467	0.0164670
891.545	0.0164871
891.623	0.0162954
891.701	0.0163728
891.780	0.0164820
891.858	0.0164447
891.936	0.0165257
892.014	0.0166291
892.092	0.0164674
892.170	0.0164165
892.248	0.0165726
892.326	0.0164320
892.405	0.0165504
892.483	0.0165784
892.561	0.0166248
892.639	0.0165636
892.717	0.0167518
892.795	0.0167054
892.873	0.0166160
892.951	0.0165558
893.030	0.0165323
893.108	0.0166134
893.186	0.0166684
893.264	0.0168271
893.342	0.0165869
893.420	0.0166669
893.498	0.0166250
893.576	0.0165287
893.655	0.0165588
893.733	0.0166268
893.811	0.0168044
893.889	0.0165768
893.967	0.0165791
894.045	0.0165844
894.123	0.0166879
894.201	0.0166656
894.280	0.0166839
894.358	0.0165369
894.436	0.0164970
894.514	0.0166847
894.592	0.0164754
894.670	0.0164936
894.748	0.0165028
894.826	0.0165350
894.905	0.0164941
894.983	0.0164265
895.061	0.0164903
895.139	0.0165480
895.217	0.0166112
895.295	0.0164568
895.373	0.0163610
895.451	0.0165577
895.530	0.0165047
895.608	0.0164626
895.686	0.0164477
895.764	0.0163422
895.842	0.0164443
895.920	0.0164393
895.998	0.0164036
896.076	0.0163065
896.155	0.0164461
896.233	0.0164001
896.311	0.0165126
896.389	0.0163196
896.467	0.0163927
896.545	0.0165425
896.623	0.0164562
896.701	0.0164376
896.780	0.0164340
896.858	0.0162679
896.936	0.0163068
897.014	0.0164035
897.092	0.0163990
897.170	0.0163076
897.248	0.0163589
897.326	0.0164370
897.405	0.0163714
897.483	0.0164981
897.561	0.0164651
897.639	0.0164306
897.717	0.0163966
897.795	0.0164127
897.873	0.0166386
897.951	0.0165007
898.030	0.0164921
898.108	0.0165991
898.186	0.0165652
898.264	0.0166405
898.342	0.0165807
898.420	0.0167036
898.498	0.0166644
898.576	0.0167823
898.655	0.0167968
898.733	0.0166653
898.811	0.0166510
898.889	0.0166405
898.967	0.0167550
899.045	0.0165686
899.123	0.0166219
899.201	0.0166022
899.280	0.0166434
899.358	0.0166318
899.436	0.0164687
899.514	0.0165209
899.592	0.0162716
899.670	0.0164301
899.748	0.0165717
899.826	0.0163132
899.905	0.0164136
899.983	0.0162640
900.061	0.0163257
900.139	0.0162286
900.217	0.0162767
900.295	0.0162271
900.373	0.0162353
900.451	0.0162864
900.530	0.0161235
900.608	0.0161882
900.686	0.0162346
900.764	0.0161866
900.842	0.0161920
900.920	0.0161952
900.998	0.0161615
901.076	0.0161720
901.155	0.0162000
901.233	0.0161716
901.311	0.0162933
901.389	0.0162357
901.467	0.0163271
901.545	0.0163464
901.623	0.0162910
901.701	0.0162701
901.780	0.0163268
901.858	0.0164267
901.936	0.0163079
902.014	0.0163350
902.092	0.0162701
902.170	0.0163055
902.248	0.0163715
902.326	0.0163095
902.405	0.0162878
902.483	0.0162462
902.561	0.0163509
902.639	0.0164695
902.717	0.0163016
902.795	0.0164259
902.873	0.0163271
902.951	0.0163441
903.030	0.0164880
903.108	0.0164713
903.186	0.0164964
903.264	0.0164265
903.342	0.0164465
903.420	0.0164355
903.498	0.0165371
903.576	0.0165386
903.655	0.0164890
903.733	0.0163140
903.811	0.0164958
903.889	0.0166412
903.967	0.0164867
904.045	0.0164464
904.123	0.0165157
904.201	0.0163927
904.280	0.0163811
904.358	0.0164561
904.436	0.0163947
904.514	0.0164833
904.592	0.0166270
904.670	0.0166283
904.748	0.0165453
904.826	0.0165118
904.905	0.0165097
904.983	0.0164336
905.061	0.0165457
905.139	0.0165865
905.217	0.0164371
905.295	0.0166502
905.373	0.0166123
905.451	0.0166401
905.530	0.0165092
905.608	0.0165209
905.686	0.0165536
905.764	0.0166869
905.842	0.0165317
905.920	0.0165907
905.998	0.0165838
906.076	0.0165863
906.155	0.0166528
906.233	0.0164317
906.311	0.0164407
906.389	0.0164162
906.467	0.0165303
906.545	0.0164555
906.623	0.0164816
906.701	0.0164531
906.780	0.0164355
906.858	0.0164778
906.936	0.0162923
907.014	0.0165010
907.092	0.0163815
907.170	0.0164342
907.248	0.0165074
907.326	0.0162592
907.405	0.0162840
907.483	0.0162658
907.561	0.0164236
907.639	0.0164332
907.717	0.0161923
907.795	0.0163243
907.873	0.0162805
907.951	0.0162006
908.030	0.0163532
908.108	0.0161993
908.186	0.0160196
908.264	0.0162139
908.342	0.0161823
908.420	0.0163045
908.498	0.0161429
908.576	0.0161924
908.655	0.0161082
908.733	0.0161946
908.811	0.0162952
908.889	0.0161142
908.967	0.0162192
909.045	0.0161204
909.123	0.0161444
909.201	0.0161555
909.280	0.0162160
909.358	0.0162183
909.436	0.0161539
909.514	0.0162807
909.592	0.0161900
909.670	0.0161986
909.748	0.0163519
909.826	0.0162076
909.905	0.0164305
909.983	0.0163248
910.061	0.0163123
910.139	0.0165106
910.217	0.0163848
910.295	0.0165157
910.373	0.0164823
910.451	0.0165511
910.530	0.0163669
910.608	0.0164504
910.686	0.0165062
910.764	0.0163960
910.842	0.0166147
910.920	0.0164771
910.998	0.0164268
911.076	0.0164693
911.155	0.0164140
911.233	0.0164539
911.311	0.0164703
911.389	0.0164496
911.467	0.0163320
911.545	0.0163524
911.623	0.0164743
911.701	0.0164575
911.780	0.0164424
911.858	0.0163297
911.936	0.0165972
912.014	0.0163960
912.092	0.0164290
912.170	0.0165767
912.248	0.0165124
912.326	0.0164413
912.405	0.0165593
912.483	0.0165251
912.561	0.0164655
912.639	0.0165593
912.717	0.0165254
912.795	0.0165083
912.873	0.0164147
912.951	0.0164348
913.030	0.0162920
913.108	0.0165111
913.186	0.0164177
913.264	0.0163864
913.342	0.0164910
913.420	0.0164462
913.498	0.0164088
913.576	0.0164555
913.655	0.0165701
913.733	0.0163423
913.811	0.0163937
913.889	0.0164588
913.967	0.0163636
914.045	0.0163759
914.123	0.0164225
914.201	0.0164886
914.280	0.0165797
914.358	0.0165448
914.436	0.0164061
914.514	0.0163902
914.592	0.0164342
914.670	0.0165403
914.748	0.0165383
914.826	0.0166210
914.905	0.0164522
914.983	0.0163636
915.061	0.0165453
915.139	0.0164967
915.217	0.0165547
915.295	0.0166537
915.373	0.0165592
915.451	0.0165079
915.530	0.0165004
915.608	0.0166006
915.686	0.0164960
915.764	0.0167425
915.842	0.0165549
915.920	0.0165738
915.998	0.0166241
916.076	0.0166619
916.155	0.0167558
916.233	0.0165736
916.311	0.0166225
916.389	0.0166827
916.467	0.0165256
916.545	0.0165203
916.623	0.0165446
916.701	0.0165302
916.780	0.0165196
916.858	0.0165405
916.936	0.0165929
917.014	0.0164803
917.092	0.0166296
917.170	0.0165224
917.248	0.0164906
917.326	0.0166040
917.405	0.0165641
917.483	0.0165153
917.561	0.0166007
917.639	0.0165694
917.717	0.0164287
917.795	0.0165408
917.873	0.0164810
917.951	0.0165662
918.030	0.0165652
918.108	0.0165978
918.186	0.0165322
918.264	0.0166515
918.342	0.0165730
918.420	0.0166204
918.498	0.0165249
918.576	0.0165097
918.655	0.0166218
918.733	0.0166513
918.811	0.0164990
918.889	0.0165673
918.967	0.0166479
919.045	0.0165692
919.123	0.0164433
919.201	0.0166634
919.280	0.0165642
919.358	0.0164949
919.436	0.0165673
919.514	0.0164754
919.592	0.0164548
919.670	0.0164447
919.748	0.0164860
919.826	0.0164378
919.905	0.0164602
919.983	0.0164661
920.061	0.0165059
920.139	0.0165690
920.217	0.0164761
920.295	0.0164703
920.373	0.0165004
920.451	0.0163370
920.530	0.0164261
920.608	0.0163975
920.686	0.0164071
920.764	0.0163787
920.842	0.0164552
920.920	0.0165318
920.998	0.0164078
921.076	0.0163441
921.155	0.0164468
921.233	0.0164058
921.311	0.0164275
921.389	0.0164284
921.467	0.0164427
921.545	0.0164293
921.623	0.0163956
921.701	0.0164507
921.780	0.0163737
921.858	0.0163514
921.936	0.0163830
922.014	0.0164965
922.092	0.0164230
922.170	0.0163358
922.248	0.0165818
922.326	0.0164681
922.405	0.0163418
922.483	0.0164261
922.561	0.0164825
922.639	0.0164847
922.717	0.0163825
922.795	0.0164793
922.873	0.0164151
922.951	0.0163409
923.030	0.0163825
923.108	0.0163569
923.186	0.0163174
923.264	0.0163303
923.342	0.0163364
923.420	0.0162906
923.498	0.0165358
923.576	0.0163767
923.655	0.0163776
923.733	0.0164826
923.811	0.0164545
923.889	0.0163453
923.967	0.0165311
924.045	0.0164953
924.123	0.0165229
924.201	0.0164924
924.280	0.0163563
924.358	0.0165027
924.436	0.0166505
924.514	0.0164767
924.592	0.0166690
924.670	0.0165520
924.748	0.0166221
924.826	0.0165092
924.905	0.0164249
924.983	0.0164922
925.061	0.0165782
925.139	0.0163407
925.217	0.0165355
925.295	0.0164991
925.373	0.0164919
925.451	0.0164155
925.530	0.0164132
925.608	0.0163455
925.686	0.0163321
925.764	0.0164625
925.842	0.0163069
925.920	0.0163555
925.998	0.0164292
926.076	0.0165687
926.155	0.0164937
926.233	0.0164545
926.311	0.0164201
926.389	0.0163828
926.467	0.0164398
926.545	0.0165765
926.623	0.0165220
926.701	0.0164230
926.780	0.0166183
926.858	0.0166070
926.936	0.0166280
927.014	0.0163869
927.092	0.0165764
927.170	0.0166940
927.248	0.0166382
927.326	0.0164095
927.405	0.0165540
927.483	0.0166516
927.561	0.0165363
927.639	0.0165758
927.717	0.0164870
927.795	0.0165829
927.873	0.0164388
927.951	0.0163874
928.030	0.0163634
928.108	0.0164666
928.186	0.0164030
928.264	0.0163717
928.342	0.0163813
928.420	0.0164082
928.498	0.0163912
928.576	0.0163995
928.655	0.0163866
928.733	0.0162265
928.811	0.0163802
928.889	0.0165081
928.967	0.0164767
929.045	0.0163946
929.123	0.0165153
929.201	0.0163717
929.280	0.0164969
929.358	0.0165844
929.436	0.0164069
929.514	0.0163892
929.592	0.0165359
929.670	0.0165623
929.748	0.0163537
929.826	0.0162908
929.905	0.0165617
929.983	0.0165147
930.061	0.0164888
930.139	0.0163281
930.217	0.0163792
930.295	0.0165205
930.373	0.0165638
930.451	0.0163680
930.530	0.0164086
930.608	0.0166016
930.686	0.0164068
930.764	0.0164796
930.842	0.0164970
930.920	0.0165768
930.998	0.0164711
931.076	0.0165974
931.155	0.0165034
931.233	0.0165524
931.311	0.0166714
931.389	0.0166111
931.467	0.0164651
931.545	0.0165559
931.623	0.0167639
931.701	0.0168018
931.780	0.0165973
931.858	0.0166751
931.936	0.0167736
932.014	0.0166058
932.092	0.0165666
932.170	0.0167691
932.248	0.0167609
932.326	0.0165157
932.405	0.0166678
932.483	0.0166130
932.561	0.0166439
932.639	0.0166093
932.717	0.0166846
932.795	0.0166831
932.873	0.0166345
932.951	0.0165712
933.030	0.0167297
933.108	0.0167457
933.186	0.0168331
933.264	0.0166353
933.342	0.0165680
933.420	0.0166685
933.498	0.0165636
933.576	0.0166537
933.655	0.0166657
933.733	0.0166270
933.811	0.0165727
933.889	0.0165671
933.967	0.0165887
934.045	0.0165796
934.123	0.0165125
934.201	0.0165245
934.280	0.0165546
934.358	0.0166427
934.436	0.0165180
934.514	0.0165005
934.592	0.0164646
934.670	0.0164700
934.748	0.0165401
934.826	0.0165417
934.905	0.0164421
934.983	0.0165714
935.061	0.0166007
935.139	0.0164606
935.217	0.0165788
935.295	0.0165232
935.373	0.0164151
935.451	0.0165790
935.530	0.0166223
935.608	0.0165134
935.686	0.0164624
935.764	0.0166134
935.842	0.0165452
935.920	0.0164756
935.998	0.0164661
936.076	0.0164702
936.155	0.0163998
936.233	0.0163830
936.311	0.0163605
936.389	0.0164049
936.467	0.0163817
936.545	0.0164358
936.623	0.0164677
936.701	0.0164521
936.780	0.0164564
936.858	0.0165989
936.936	0.0165009
937.014	0.0164715
937.092	0.0165465
937.170	0.0163599
937.248	0.0165063
937.326	0.0164668
937.405	0.0165047
937.483	0.0163534
937.561	0.0164065
937.639	0.0165459
937.717	0.0165302
937.795	0.0164516
937.873	0.0163805
937.951	0.0163638
938.030	0.0164229
938.108	0.0165553
938.186	0.0164038
938.264	0.0164244
938.342	0.0164764
938.420	0.0164286
938.498	0.0165528
938.576	0.0164527
938.655	0.0165563
938.733	0.0164592
938.811	0.0165778
938.889	0.0164156
938.967	0.0164684
939.045	0.0166483
939.123	0.0164799
939.201	0.0166117
939.280	0.0164994
939.358	0.0165776
939.436	0.0164186
939.514	0.0166561
939.592	0.0165935
939.670	0.0165282
939.748	0.0164772
939.826	0.0164771
939.905	0.0165578
939.983	0.0165382
940.061	0.0167358
940.139	0.0165064
940.217	0.0164718
940.295	0.0165668
940.373	0.0164787
940.451	0.0163879
940.530	0.0163692
940.608	0.0164891
940.686	0.0163441
940.764	0.0163774
940.842	0.0162587
940.920	0.0163290
940.998	0.0164314
941.076	0.0163622
941.155	0.0163127
941.233	0.0162994
941.311	0.0162272
941.389	0.0163453
941.467	0.0163640
941.545	0.0164024
941.623	0.0163094
941.701	0.0161728
941.780	0.0162109
941.858	0.0163069
941.936	0.0163078
942.014	0.0162945
942.092	0.0160920
942.170	0.0162939
942.248	0.0163282
942.326	0.0163074
942.405	0.0163031
942.483	0.0164806
942.561	0.0163691
942.639	0.0165844
942.717	0.0164162
942.795	0.0164131
942.873	0.0164452
942.951	0.0165238
943.030	0.0163672
943.108	0.0163898
943.186	0.0164302
943.264	0.0164326
943.342	0.0165044
943.420	0.0165709
943.498	0.0165324
943.576	0.0164486
943.655	0.0165428
943.733	0.0165198
943.811	0.0164684
943.889	0.0165383
943.967	0.0165899
944.045	0.0166279
944.123	0.0165318
944.201	0.0164967
944.280	0.0164909
944.358	0.0164767
944.436	0.0166028
944.514	0.0164807
944.592	0.0164980
944.670	0.0163853
944.748	0.0164507
944.826	0.0164938
944.905	0.0165316
944.983	0.0166972
945.061	0.0165533
945.139	0.0166803
945.217	0.0166101
945.295	0.0165870
945.373	0.0166683
945.451	0.0165029
945.530	0.0165430
945.608	0.0165673
945.686	0.0165354
945.764	0.0165795
945.842	0.0166040
945.920	0.0166180
945.998	0.0166969
946.076	0.0164890
946.155	0.0165070
946.233	0.0164361
946.311	0.0165909
946.389	0.0164474
946.467	0.0165929
946.545	0.0166158
946.623	0.0164851
946.701	0.0165907
946.780	0.0166012
946.858	0.0166974
946.936	0.0166306
947.014	0.0164936
947.092	0.0165266
947.170	0.0164716
947.248	0.0164759
947.326	0.0165452
947.405	0.0165067
947.483	0.0164407
947.561	0.0165739
947.639	0.0165832
947.717	0.0166737
947.795	0.0163813
947.873	0.0164367
947.951	0.0165284
948.030	0.0165619
948.108	0.0163475
948.186	0.0165133
948.264	0.0164697
948.342	0.0163090
948.420	0.0163871
948.498	0.0164604
948.576	0.0164516
948.655	0.0163223
948.733	0.0163568
948.811	0.0163644
948.889	0.0163326
948.967	0.0163615
949.045	0.0162833
949.123	0.0161924
949.201	0.0162118
949.280	0.0161503
949.358	0.0161755
949.436	0.0162174
949.514	0.0162927
949.592	0.0163113
949.670	0.0163432
949.748	0.0164306
949.826	0.0162892
949.905	0.0162717
949.983	0.0163342
950.061	0.0163651
950.139	0.0163033
950.217	0.0164333
950.295	0.0164381
950.373	0.0163580
950.451	0.0163910
950.530	0.0164671
950.608	0.0163945
950.686	0.0164801
950.764	0.0163497
950.842	0.0164060
950.920	0.0164219
950.998	0.0165288
951.076	0.0165874
951.155	0.0165776
951.233	0.0165598
951.311	0.0167033
951.389	0.0167027
951.467	0.0166502
951.545	0.0166821
951.623	0.0165820
951.701	0.0165645
951.780	0.0167191
951.858	0.0167396
951.936	0.0167204
952.014	0.0167727
952.092	0.0166056
952.170	0.0167719
952.248	0.0167474
952.326	0.0166685
952.405	0.0166956
952.483	0.0167194
952.561	0.0165760
952.639	0.0165362
952.717	0.0168281
952.795	0.0167953
952.873	0.0166572
952.951	0.0167027
953.030	0.0166848
953.108	0.0166776
953.186	0.0167146
953.264	0.0166530
953.342	0.0166811
953.420	0.0165640
953.498	0.0166032
953.576	0.0166598
953.655	0.0165727
953.733	0.0165997
953.811	0.0166273
953.889	0.0164767
953.967	0.0165697
954.045	0.0166198
954.123	0.0164085
954.201	0.0166656
954.280	0.0166538
954.358	0.0165571
954.436	0.0164144
954.514	0.0163612
954.592	0.0164821
954.670	0.0166190
954.748	0.0165670
954.826	0.0164341
954.905	0.0165657
954.983	0.0165051
955.061	0.0165426
955.139	0.0164325
955.217	0.0164887
955.295	0.0165456
955.373	0.0165303
955.451	0.0165289
955.530	0.0164182
955.608	0.0164482
955.686	0.0164109
955.764	0.0164766
955.842	0.0164510
955.920	0.0165630
955.998	0.0164753
956.076	0.0163791
956.155	0.0164328
956.233	0.0163063
956.311	0.0164404
956.389	0.0163898
956.467	0.0164744
956.545	0.0164541
956.623	0.0163161
956.701	0.0163738
956.780	0.0164854
956.858	0.0165120
956.936	0.0163820
957.014	0.0164673
957.092	0.0162938
957.170	0.0164797
957.248	0.0163708
957.326	0.0162930
957.405	0.0162804
957.483	0.0162643
957.561	0.0164108
957.639	0.0164528
957.717	0.0164699
957.795	0.0164004
957.873	0.0165432
957.951	0.0163567
958.030	0.0164216
958.108	0.0164020
958.186	0.0163933
958.264	0.0164001
958.342	0.0164167
958.420	0.0165054
958.498	0.0166018
958.576	0.0164172
958.655	0.0165734
958.733	0.0165561
958.811	0.0166134
958.889	0.0165374
958.967	0.0166167
959.045	0.0165736
959.123	0.0165815
959.201	0.0165693
959.280	0.0166171
959.358	0.0165038
959.436	0.0165948
959.514	0.0166423
959.592	0.0166393
959.670	0.0166448
959.748	0.0168146
959.826	0.0166357
959.905	0.0166758
