05/14/2022	19:09:39	Ver.	4.1	UNKNOWN
Optical Delay	650.016352	Delta X		0.078125	Sweeps	1	Scan Rate	0/0
Coordinates	Axis 1	NaN	Axis 2	NaN	Axis 3	NaN	Axis 4	NaN	Axis 5	NaN	Axis 6	0.000000
TX Power	0.000000	RX Power	0.000000

650.016	0.0150489
650.094	0.0150056
650.173	0.0150803
650.251	0.0149216
650.329	0.0150259
650.407	0.0152325
650.485	0.0150208
650.563	0.0149948
650.641	0.0151112
650.719	0.0150726
650.798	0.0149815
650.876	0.0152937
650.954	0.0149444
651.032	0.0149980
651.110	0.0150645
651.188	0.0151313
651.266	0.0150954
651.344	0.0151012
651.423	0.0151593
651.501	0.0150531
651.579	0.0150909
651.657	0.0149983
651.735	0.0150001
651.813	0.0150784
651.891	0.0152307
651.969	0.0149906
652.048	0.0150951
652.126	0.0151032
652.204	0.0149594
652.282	0.0150652
652.360	0.0150138
652.438	0.0151419
652.516	0.0149383
652.594	0.0150980
652.673	0.0151665
652.751	0.0149844
652.829	0.0151337
652.907	0.0150864
652.985	0.0148145
653.063	0.0150518
653.141	0.0151677
653.219	0.0151220
653.298	0.0150150
653.376	0.0150609
653.454	0.0150475
653.532	0.0150404
653.610	0.0150285
653.688	0.0151944
653.766	0.0150005
653.844	0.0151310
653.923	0.0150919
654.001	0.0150714
654.079	0.0150462
654.157	0.0150547
654.235	0.0150103
654.313	0.0150760
654.391	0.0151237
654.469	0.0149227
654.548	0.0149722
654.626	0.0149660
654.704	0.0151786
654.782	0.0149915
654.860	0.0151876
654.938	0.0150457
655.016	0.0149027
655.094	0.0150108
655.173	0.0149426
655.251	0.0151314
655.329	0.0151008
655.407	0.0150607
655.485	0.0150877
655.563	0.0152271
655.641	0.0150681
655.719	0.0151775
655.798	0.0149609
655.876	0.0149929
655.954	0.0150330
656.032	0.0150086
656.110	0.0149231
656.188	0.0149502
656.266	0.0150221
656.344	0.0149706
656.423	0.0150241
656.501	0.0150808
656.579	0.0150581
656.657	0.0150951
656.735	0.0150496
656.813	0.0149211
656.891	0.0149568
656.969	0.0149663
657.048	0.0150935
657.126	0.0150771
657.204	0.0150989
657.282	0.0150498
657.360	0.0151001
657.438	0.0150157
657.516	0.0151247
657.594	0.0150947
657.673	0.0150811
657.751	0.0150471
657.829	0.0151044
657.907	0.0151003
657.985	0.0149137
658.063	0.0149742
658.141	0.0151353
658.219	0.0150536
658.298	0.0150945
658.376	0.0150940
658.454	0.0150639
658.532	0.0150877
658.610	0.0151680
658.688	0.0150658
658.766	0.0151018
658.844	0.0149863
658.923	0.0149371
659.001	0.0150964
659.079	0.0150301
659.157	0.0149333
659.235	0.0150950
659.313	0.0150507
659.391	0.0149290
659.469	0.0148968
659.548	0.0151207
659.626	0.0150555
659.704	0.0150494
659.782	0.0150282
659.860	0.0150897
659.938	0.0149569
660.016	0.0149833
660.094	0.0150763
660.173	0.0151160
660.251	0.0148666
660.329	0.0149187
660.407	0.0150594
660.485	0.0149639
660.563	0.0150912
660.641	0.0149924
660.719	0.0149564
660.798	0.0150137
660.876	0.0150853
660.954	0.0151217
661.032	0.0149429
661.110	0.0149581
661.188	0.0149899
661.266	0.0150925
661.344	0.0150320
661.423	0.0150768
661.501	0.0150312
661.579	0.0151868
661.657	0.0150878
661.735	0.0149637
661.813	0.0151247
661.891	0.0150819
661.969	0.0150218
662.048	0.0149931
662.126	0.0151257
662.204	0.0151494
662.282	0.0150018
662.360	0.0149873
662.438	0.0150465
662.516	0.0150093
662.594	0.0148818
662.673	0.0151016
662.751	0.0151085
662.829	0.0150275
662.907	0.0150330
662.985	0.0150537
663.063	0.0150085
663.141	0.0149451
663.219	0.0150160
663.298	0.0149728
663.376	0.0149962
663.454	0.0150652
663.532	0.0149166
663.610	0.0149307
663.688	0.0150899
663.766	0.0149458
663.844	0.0149705
663.923	0.0150273
664.001	0.0149660
664.079	0.0150422
664.157	0.0149715
664.235	0.0151124
664.313	0.0150412
664.391	0.0152124
664.469	0.0150665
664.548	0.0149884
664.626	0.0149998
664.704	0.0148679
664.782	0.0148817
664.860	0.0149564
664.938	0.0149606
665.016	0.0149413
665.094	0.0150145
665.173	0.0150494
665.251	0.0149893
665.329	0.0150890
665.407	0.0149976
665.485	0.0149557
665.563	0.0151424
665.641	0.0150172
665.719	0.0150060
665.798	0.0149244
665.876	0.0149606
665.954	0.0150365
666.032	0.0150035
666.110	0.0149429
666.188	0.0149914
666.266	0.0149496
666.344	0.0151169
666.423	0.0150365
666.501	0.0151529
666.579	0.0149908
666.657	0.0149986
666.735	0.0151277
666.813	0.0150117
666.891	0.0150195
666.969	0.0150177
667.048	0.0150706
667.126	0.0149704
667.204	0.0150220
667.282	0.0149803
667.360	0.0149503
667.438	0.0150357
667.516	0.0150442
667.594	0.0150191
667.673	0.0148528
667.751	0.0151089
667.829	0.0151740
667.907	0.0150093
667.985	0.0148852
668.063	0.0148990
668.141	0.0149206
668.219	0.0150398
668.298	0.0148999
668.376	0.0150406
668.454	0.0149922
668.532	0.0149487
668.610	0.0150089
668.688	0.0149944
668.766	0.0149490
668.844	0.0148961
668.923	0.0149268
669.001	0.0151053
669.079	0.0150184
669.157	0.0150706
669.235	0.0151556
669.313	0.0149429
669.391	0.0150259
669.469	0.0150115
669.548	0.0149343
669.626	0.0149344
669.704	0.0149090
669.782	0.0150555
669.860	0.0150049
669.938	0.0149918
670.016	0.0149781
670.094	0.0150032
670.173	0.0149753
670.251	0.0149464
670.329	0.0150218
670.407	0.0149940
670.485	0.0151304
670.563	0.0149819
670.641	0.0148710
670.719	0.0149462
670.798	0.0151266
670.876	0.0149030
670.954	0.0149072
671.032	0.0149651
671.110	0.0149884
671.188	0.0149133
671.266	0.0150555
671.344	0.0149625
671.423	0.0150016
671.501	0.0149637
671.579	0.0148784
671.657	0.0149872
671.735	0.0149984
671.813	0.0149367
671.891	0.0148434
671.969	0.0148634
672.048	0.0150046
672.126	0.0150080
672.204	0.0149784
672.282	0.0149695
672.360	0.0150301
672.438	0.0149375
672.516	0.0148692
672.594	0.0149123
672.673	0.0148389
672.751	0.0148984
672.829	0.0150372
672.907	0.0150018
672.985	0.0149193
673.063	0.0149127
673.141	0.0148532
673.219	0.0149451
673.298	0.0150667
673.376	0.0149516
673.454	0.0147460
673.532	0.0149423
673.610	0.0151109
673.688	0.0149218
673.766	0.0149964
673.844	0.0150162
673.923	0.0150298
674.001	0.0150282
674.079	0.0149477
674.157	0.0150638
674.235	0.0150120
674.313	0.0149188
674.391	0.0150454
674.469	0.0150716
674.548	0.0149594
674.626	0.0150935
674.704	0.0151703
674.782	0.0149896
674.860	0.0149639
674.938	0.0150089
675.016	0.0151471
675.094	0.0150686
675.173	0.0150526
675.251	0.0150468
675.329	0.0151060
675.407	0.0150967
675.485	0.0151776
675.563	0.0151238
675.641	0.0150955
675.719	0.0150590
675.798	0.0151502
675.876	0.0151962
675.954	0.0149567
676.032	0.0150430
676.110	0.0152663
676.188	0.0150816
676.266	0.0151575
676.344	0.0150922
676.423	0.0153925
676.501	0.0151195
676.579	0.0150421
676.657	0.0152566
676.735	0.0150336
676.813	0.0151337
676.891	0.0152660
676.969	0.0152477
677.048	0.0151562
677.126	0.0150596
677.204	0.0152217
677.282	0.0151577
677.360	0.0151223
677.438	0.0151904
677.516	0.0150737
677.594	0.0153146
677.673	0.0151479
677.751	0.0151965
677.829	0.0151849
677.907	0.0151398
677.985	0.0151212
678.063	0.0151524
678.141	0.0151485
678.219	0.0151963
678.298	0.0151390
678.376	0.0150932
678.454	0.0151223
678.532	0.0151241
678.610	0.0151218
678.688	0.0151364
678.766	0.0151478
678.844	0.0151780
678.923	0.0151047
679.001	0.0150227
679.079	0.0152042
679.157	0.0153359
679.235	0.0151803
679.313	0.0151556
679.391	0.0151716
679.469	0.0151935
679.548	0.0151957
679.626	0.0151826
679.704	0.0151946
679.782	0.0152134
679.860	0.0151157
679.938	0.0150353
680.016	0.0150880
680.094	0.0150776
680.173	0.0150954
680.251	0.0149832
680.329	0.0151177
680.407	0.0150108
680.485	0.0150537
680.563	0.0150558
680.641	0.0152120
680.719	0.0150444
680.798	0.0149800
680.876	0.0149779
680.954	0.0149677
681.032	0.0149761
681.110	0.0149867
681.188	0.0149767
681.266	0.0149960
681.344	0.0150723
681.423	0.0150797
681.501	0.0149511
681.579	0.0150004
681.657	0.0150198
681.735	0.0148094
681.813	0.0148582
681.891	0.0149100
681.969	0.0149685
682.048	0.0148486
682.126	0.0148499
682.204	0.0149896
682.282	0.0149708
682.360	0.0149818
682.438	0.0149703
682.516	0.0149390
682.594	0.0149341
682.673	0.0149030
682.751	0.0149125
682.829	0.0150713
682.907	0.0149721
682.985	0.0148131
683.063	0.0148221
683.141	0.0148938
683.219	0.0149838
683.298	0.0148776
683.376	0.0151476
683.454	0.0150252
683.532	0.0149704
683.610	0.0149783
683.688	0.0148727
683.766	0.0150105
683.844	0.0150112
683.923	0.0149818
684.001	0.0149650
684.079	0.0150027
684.157	0.0149658
684.235	0.0149001
684.313	0.0149811
684.391	0.0150597
684.469	0.0149839
684.548	0.0150502
684.626	0.0148373
684.704	0.0150697
684.782	0.0150005
684.860	0.0149063
684.938	0.0151002
685.016	0.0150247
685.094	0.0149887
685.173	0.0149669
685.251	0.0149613
685.329	0.0148783
685.407	0.0150392
685.485	0.0151604
685.563	0.0149224
685.641	0.0149009
685.719	0.0148847
685.798	0.0150355
685.876	0.0150261
685.954	0.0149783
686.032	0.0151161
686.110	0.0149473
686.188	0.0149207
686.266	0.0149567
686.344	0.0149592
686.423	0.0150098
686.501	0.0150352
686.579	0.0150613
686.657	0.0149242
686.735	0.0151129
686.813	0.0150458
686.891	0.0151334
686.969	0.0152082
687.048	0.0151700
687.126	0.0151173
687.204	0.0150229
687.282	0.0150797
687.360	0.0150876
687.438	0.0150240
687.516	0.0151042
687.594	0.0150910
687.673	0.0150616
687.751	0.0149969
687.829	0.0150478
687.907	0.0149624
687.985	0.0150903
688.063	0.0150446
688.141	0.0151354
688.219	0.0151042
688.298	0.0150936
688.376	0.0149377
688.454	0.0149399
688.532	0.0149167
688.610	0.0150927
688.688	0.0151006
688.766	0.0150972
688.844	0.0150365
688.923	0.0149876
689.001	0.0150272
689.079	0.0149488
689.157	0.0149284
689.235	0.0148518
689.313	0.0149216
689.391	0.0149540
689.469	0.0149473
689.548	0.0151585
689.626	0.0155424
689.704	0.0155190
689.782	0.0157500
689.860	0.0159838
689.938	0.0160968
690.016	0.0159948
690.094	0.0158134
690.173	0.0155886
690.251	0.0150079
690.329	0.0143731
690.407	0.0138884
690.485	0.0135812
690.563	0.0131725
690.641	0.0130182
690.719	0.0131319
690.798	0.0133917
690.876	0.0137827
690.954	0.0145281
691.032	0.0153005
691.110	0.0161291
691.188	0.0170638
691.266	0.0175131
691.344	0.0180639
691.423	0.0183572
691.501	0.0181358
691.579	0.0178342
691.657	0.0173296
691.735	0.0162926
691.813	0.0153875
691.891	0.0145518
691.969	0.0134161
692.048	0.0124765
692.126	0.0117009
692.204	0.0111846
692.282	0.0110077
692.360	0.0109526
692.438	0.0111939
692.516	0.0118626
692.594	0.0124049
692.673	0.0132789
692.751	0.0142883
692.829	0.0151212
692.907	0.0160096
692.985	0.0170615
693.063	0.0178475
693.141	0.0184000
693.219	0.0187556
693.298	0.0189737
693.376	0.0191008
693.454	0.0191502
693.532	0.0187791
693.610	0.0183164
693.688	0.0175518
693.766	0.0172005
693.844	0.0164170
693.923	0.0155853
694.001	0.0147284
694.079	0.0138067
694.157	0.0132284
694.235	0.0126053
694.313	0.0121829
694.391	0.0116602
694.469	0.0114804
694.548	0.0112086
694.626	0.0114050
694.704	0.0114172
694.782	0.0116354
694.860	0.0118345
694.938	0.0123674
695.016	0.0127259
695.094	0.0133070
695.173	0.0138166
695.251	0.0144212
695.329	0.0150091
695.407	0.0156142
695.485	0.0162119
695.563	0.0167375
695.641	0.0172813
695.719	0.0177290
695.798	0.0181030
695.876	0.0183948
695.954	0.0186076
696.032	0.0188172
696.110	0.0187444
696.188	0.0187593
696.266	0.0185765
696.344	0.0182250
696.423	0.0179501
696.501	0.0174300
696.579	0.0169152
696.657	0.0162837
696.735	0.0155979
696.813	0.0149035
696.891	0.0142348
696.969	0.0134798
697.048	0.0129575
697.126	0.0123155
697.204	0.0118383
697.282	0.0115710
697.360	0.0112142
697.438	0.0112239
697.516	0.0110537
697.594	0.0111169
697.673	0.0113099
697.751	0.0116542
697.829	0.0118188
697.907	0.0124141
697.985	0.0128387
698.063	0.0133186
698.141	0.0138048
698.219	0.0144801
698.298	0.0149992
698.376	0.0155169
698.454	0.0161155
698.532	0.0164620
698.610	0.0168312
698.688	0.0171465
698.766	0.0176385
698.844	0.0177938
698.923	0.0179043
699.001	0.0180927
699.079	0.0179494
699.157	0.0180080
699.235	0.0179402
699.313	0.0177894
699.391	0.0177100
699.469	0.0172927
699.548	0.0170707
699.626	0.0169610
699.704	0.0164883
699.782	0.0163193
699.860	0.0158674
699.938	0.0154536
700.016	0.0149029
700.094	0.0145557
700.173	0.0142168
700.251	0.0139674
700.329	0.0136873
700.407	0.0133866
700.485	0.0131915
700.563	0.0128884
700.641	0.0127634
700.719	0.0125694
700.798	0.0128146
700.876	0.0126420
700.954	0.0125929
701.032	0.0126089
701.110	0.0128214
701.188	0.0128820
701.266	0.0130316
701.344	0.0130538
701.423	0.0134091
701.501	0.0137112
701.579	0.0138674
701.657	0.0140546
701.735	0.0142305
701.813	0.0146739
701.891	0.0150487
701.969	0.0153357
702.048	0.0155437
702.126	0.0159037
702.204	0.0163042
702.282	0.0164769
702.360	0.0166847
702.438	0.0167978
702.516	0.0169820
702.594	0.0171210
702.673	0.0173083
702.751	0.0172276
702.829	0.0172913
702.907	0.0172858
702.985	0.0172228
703.063	0.0171458
703.141	0.0171572
703.219	0.0168756
703.298	0.0168268
703.376	0.0167422
703.454	0.0164816
703.532	0.0162179
703.610	0.0160545
703.688	0.0157391
703.766	0.0155705
703.844	0.0153022
703.923	0.0149861
704.001	0.0148596
704.079	0.0146204
704.157	0.0145049
704.235	0.0142986
704.313	0.0141806
704.391	0.0139121
704.469	0.0138486
704.548	0.0136325
704.626	0.0134515
704.704	0.0133549
704.782	0.0133308
704.860	0.0134172
704.938	0.0133976
705.016	0.0132972
705.094	0.0134205
705.173	0.0134243
705.251	0.0135184
705.329	0.0133359
705.407	0.0134307
705.485	0.0135504
705.563	0.0136083
705.641	0.0138528
705.719	0.0140054
705.798	0.0140287
705.876	0.0140536
705.954	0.0142503
706.032	0.0146706
706.110	0.0149577
706.188	0.0152740
706.266	0.0156330
706.344	0.0159617
706.423	0.0163127
706.501	0.0166278
706.579	0.0168070
706.657	0.0168492
706.735	0.0170338
706.813	0.0172405
706.891	0.0173942
706.969	0.0174169
707.048	0.0170577
707.126	0.0169242
707.204	0.0166253
707.282	0.0164454
707.360	0.0161848
707.438	0.0160281
707.516	0.0156104
707.594	0.0154950
707.673	0.0153329
707.751	0.0151939
707.829	0.0151283
707.907	0.0149748
707.985	0.0146495
708.063	0.0148309
708.141	0.0147929
708.219	0.0145972
708.298	0.0147104
708.376	0.0145469
708.454	0.0144967
708.532	0.0145803
708.610	0.0144252
708.688	0.0143162
708.766	0.0142732
708.844	0.0142471
708.923	0.0142020
709.001	0.0141036
709.079	0.0143041
709.157	0.0140012
709.235	0.0140093
709.313	0.0140427
709.391	0.0140435
709.469	0.0140469
709.548	0.0139414
709.626	0.0140498
709.704	0.0139480
709.782	0.0139516
709.860	0.0139838
709.938	0.0141764
710.016	0.0142139
710.094	0.0143397
710.173	0.0143227
710.251	0.0145341
710.329	0.0146107
710.407	0.0147324
710.485	0.0148895
710.563	0.0150623
710.641	0.0149658
710.719	0.0152123
710.798	0.0155085
710.876	0.0154267
710.954	0.0155727
711.032	0.0158115
711.110	0.0157198
711.188	0.0157277
711.266	0.0159289
711.344	0.0159894
711.423	0.0159241
711.501	0.0160509
711.579	0.0160907
711.657	0.0160791
711.735	0.0162583
711.813	0.0160728
711.891	0.0160947
711.969	0.0160866
712.048	0.0161266
712.126	0.0160070
712.204	0.0159729
712.282	0.0159362
712.360	0.0159573
712.438	0.0157977
712.516	0.0155132
712.594	0.0154419
712.673	0.0152428
712.751	0.0151498
712.829	0.0148816
712.907	0.0149350
712.985	0.0148793
713.063	0.0148804
713.141	0.0148544
713.219	0.0147636
713.298	0.0148066
713.376	0.0148495
713.454	0.0146439
713.532	0.0145720
713.610	0.0147099
713.688	0.0147128
713.766	0.0144540
713.844	0.0143671
713.923	0.0144797
714.001	0.0143868
714.079	0.0142653
714.157	0.0141509
714.235	0.0140340
714.313	0.0139335
714.391	0.0139695
714.469	0.0140287
714.548	0.0141045
714.626	0.0142641
714.704	0.0141862
714.782	0.0142393
714.860	0.0143537
714.938	0.0143095
715.016	0.0144829
715.094	0.0146243
715.173	0.0147118
715.251	0.0148643
715.329	0.0150021
715.407	0.0152635
715.485	0.0152538
715.563	0.0155000
715.641	0.0157726
715.719	0.0158633
715.798	0.0160966
715.876	0.0159910
715.954	0.0161447
716.032	0.0160127
716.110	0.0160688
716.188	0.0162109
716.266	0.0161344
716.344	0.0161191
716.423	0.0160116
716.501	0.0159754
716.579	0.0156947
716.657	0.0157827
716.735	0.0157011
716.813	0.0156791
716.891	0.0156100
716.969	0.0156448
717.048	0.0157265
717.126	0.0156483
717.204	0.0155380
717.282	0.0154687
717.360	0.0153470
717.438	0.0152702
717.516	0.0152423
717.594	0.0149005
717.673	0.0148848
717.751	0.0146159
717.829	0.0144521
717.907	0.0143709
717.985	0.0143668
718.063	0.0142628
718.141	0.0140594
718.219	0.0140960
718.298	0.0141233
718.376	0.0139282
718.454	0.0140269
718.532	0.0142664
718.610	0.0144559
718.688	0.0145148
718.766	0.0145375
718.844	0.0146193
718.923	0.0147288
719.001	0.0147574
719.079	0.0149618
719.157	0.0149306
719.235	0.0148979
719.313	0.0147658
719.391	0.0147540
719.469	0.0149088
719.548	0.0148472
719.626	0.0147461
719.704	0.0148167
719.782	0.0147601
719.860	0.0148003
719.938	0.0147478
720.016	0.0149856
720.094	0.0149776
720.173	0.0150457
720.251	0.0150210
720.329	0.0150221
720.407	0.0151656
720.485	0.0149896
720.563	0.0151098
720.641	0.0151919
720.719	0.0152030
720.798	0.0150507
720.876	0.0150483
720.954	0.0151907
721.032	0.0151527
721.110	0.0152577
721.188	0.0152277
721.266	0.0153976
721.344	0.0152822
721.423	0.0153252
721.501	0.0152493
721.579	0.0152840
721.657	0.0152916
721.735	0.0150648
721.813	0.0153192
721.891	0.0153465
721.969	0.0151047
722.048	0.0150010
722.126	0.0150043
722.204	0.0150245
722.282	0.0150666
722.360	0.0149782
722.438	0.0150031
722.516	0.0151434
722.594	0.0150933
722.673	0.0152251
722.751	0.0153624
722.829	0.0152888
722.907	0.0152070
722.985	0.0152415
723.063	0.0151273
723.141	0.0151633
723.219	0.0151887
723.298	0.0150684
723.376	0.0149216
723.454	0.0147154
723.532	0.0147926
723.610	0.0145657
723.688	0.0145788
723.766	0.0145790
723.844	0.0146043
723.923	0.0144267
724.001	0.0146114
724.079	0.0146149
724.157	0.0144688
724.235	0.0147487
724.313	0.0145653
724.391	0.0147692
724.469	0.0148674
724.548	0.0148486
724.626	0.0148443
724.704	0.0149640
724.782	0.0149059
724.860	0.0149702
724.938	0.0149972
725.016	0.0149967
725.094	0.0150021
725.173	0.0150446
725.251	0.0149025
725.329	0.0149442
725.407	0.0149469
725.485	0.0148632
725.563	0.0150561
725.641	0.0149357
725.719	0.0149580
725.798	0.0150221
725.876	0.0151704
725.954	0.0152358
726.032	0.0153542
726.110	0.0154623
726.188	0.0156460
726.266	0.0154763
726.344	0.0155242
726.423	0.0156999
726.501	0.0156916
726.579	0.0155305
726.657	0.0156302
726.735	0.0153803
726.813	0.0153885
726.891	0.0153695
726.969	0.0152488
727.048	0.0150346
727.126	0.0149460
727.204	0.0148191
727.282	0.0146821
727.360	0.0146629
727.438	0.0147446
727.516	0.0147065
727.594	0.0146976
727.673	0.0147688
727.751	0.0148341
727.829	0.0150483
727.907	0.0151127
727.985	0.0152841
728.063	0.0152969
728.141	0.0153389
728.219	0.0154278
728.298	0.0154279
728.376	0.0154243
728.454	0.0154055
728.532	0.0154165
728.610	0.0155013
728.688	0.0153508
728.766	0.0152450
728.844	0.0151849
728.923	0.0150427
729.001	0.0151630
729.079	0.0150456
729.157	0.0149798
729.235	0.0149190
729.313	0.0148141
729.391	0.0147774
729.469	0.0148042
729.548	0.0148540
729.626	0.0148313
729.704	0.0147697
729.782	0.0148238
729.860	0.0148119
729.938	0.0149759
730.016	0.0147780
730.094	0.0146918
730.173	0.0148373
730.251	0.0147500
730.329	0.0147466
730.407	0.0147839
730.485	0.0148010
730.563	0.0149703
730.641	0.0148820
730.719	0.0149777
730.798	0.0148635
730.876	0.0149704
730.954	0.0149024
731.032	0.0149321
731.110	0.0148853
731.188	0.0149565
731.266	0.0148416
731.344	0.0148942
731.423	0.0150472
731.501	0.0148492
731.579	0.0150153
731.657	0.0150542
731.735	0.0151543
731.813	0.0150988
731.891	0.0150956
731.969	0.0151059
732.048	0.0152818
732.126	0.0150322
732.204	0.0152200
732.282	0.0151276
732.360	0.0148983
732.438	0.0149858
732.516	0.0149430
732.594	0.0148959
732.673	0.0148247
732.751	0.0147596
732.829	0.0148434
732.907	0.0147054
732.985	0.0148855
733.063	0.0149500
733.141	0.0148663
733.219	0.0148868
733.298	0.0149864
733.376	0.0150162
733.454	0.0150315
733.532	0.0151251
733.610	0.0153233
733.688	0.0154862
733.766	0.0153954
733.844	0.0153211
733.923	0.0153839
734.001	0.0154564
734.079	0.0153533
734.157	0.0154168
734.235	0.0154190
734.313	0.0154346
734.391	0.0152333
734.469	0.0151533
734.548	0.0151033
734.626	0.0152346
734.704	0.0150362
734.782	0.0150251
734.860	0.0150575
734.938	0.0149358
735.016	0.0148727
735.094	0.0148044
735.173	0.0146981
735.251	0.0147161
735.329	0.0147174
735.407	0.0148313
735.485	0.0148415
735.563	0.0146198
735.641	0.0147169
735.719	0.0145553
735.798	0.0145451
735.876	0.0146346
735.954	0.0146907
736.032	0.0146107
736.110	0.0145075
736.188	0.0146354
736.266	0.0146106
736.344	0.0145740
736.423	0.0147488
736.501	0.0147374
736.579	0.0150109
736.657	0.0149997
736.735	0.0152292
736.813	0.0152312
736.891	0.0153188
736.969	0.0154676
737.048	0.0155453
737.126	0.0154972
737.204	0.0154980
737.282	0.0154361
737.360	0.0158718
737.438	0.0157053
737.516	0.0155204
737.594	0.0154334
737.673	0.0153766
737.751	0.0153812
737.829	0.0153708
737.907	0.0152139
737.985	0.0151984
738.063	0.0151377
738.141	0.0151476
738.219	0.0149580
738.298	0.0150372
738.376	0.0150697
738.454	0.0148508
738.532	0.0147873
738.610	0.0149660
738.688	0.0149516
738.766	0.0149151
738.844	0.0149892
738.923	0.0149712
739.001	0.0149781
739.079	0.0150180
739.157	0.0149152
739.235	0.0150687
739.313	0.0151231
739.391	0.0151208
739.469	0.0149880
739.548	0.0150502
739.626	0.0150536
739.704	0.0151038
739.782	0.0152022
739.860	0.0151593
739.938	0.0152293
740.016	0.0153255
740.094	0.0151936
740.173	0.0151439
740.251	0.0149673
740.329	0.0150536
740.407	0.0151659
740.485	0.0150542
740.563	0.0151150
740.641	0.0150568
740.719	0.0148479
740.798	0.0149783
740.876	0.0148676
740.954	0.0148223
741.032	0.0147356
741.110	0.0147950
741.188	0.0147750
741.266	0.0149018
741.344	0.0145805
741.423	0.0146995
741.501	0.0145905
741.579	0.0148854
741.657	0.0148318
741.735	0.0148488
741.813	0.0149266
741.891	0.0150455
741.969	0.0150838
742.048	0.0152058
742.126	0.0152502
742.204	0.0153330
742.282	0.0154258
742.360	0.0156626
742.438	0.0156142
742.516	0.0156176
742.594	0.0156591
742.673	0.0156577
742.751	0.0156692
742.829	0.0155686
742.907	0.0153973
742.985	0.0154647
743.063	0.0153819
743.141	0.0151785
743.219	0.0151755
743.298	0.0150371
743.376	0.0149726
743.454	0.0149665
743.532	0.0149139
743.610	0.0148880
743.688	0.0148299
743.766	0.0147112
743.844	0.0147117
743.923	0.0147818
744.001	0.0147733
744.079	0.0148837
744.157	0.0148421
744.235	0.0148064
744.313	0.0149473
744.391	0.0150120
744.469	0.0148963
744.548	0.0149058
744.626	0.0150380
744.704	0.0150194
744.782	0.0149773
744.860	0.0148716
744.938	0.0149392
745.016	0.0150259
745.094	0.0150203
745.173	0.0150298
745.251	0.0149258
745.329	0.0149605
745.407	0.0150626
745.485	0.0150736
745.563	0.0150240
745.641	0.0150645
745.719	0.0150834
745.798	0.0150370
745.876	0.0150291
745.954	0.0149788
746.032	0.0150072
746.110	0.0151566
746.188	0.0150108
746.266	0.0150194
746.344	0.0149118
746.423	0.0149112
746.501	0.0149015
746.579	0.0149278
746.657	0.0148180
746.735	0.0147049
746.813	0.0146645
746.891	0.0147002
746.969	0.0147749
747.048	0.0146670
747.126	0.0147285
747.204	0.0148648
747.282	0.0149068
747.360	0.0148582
747.438	0.0150267
747.516	0.0149066
747.594	0.0149853
747.673	0.0150655
747.751	0.0150658
747.829	0.0154147
747.907	0.0154794
747.985	0.0152637
748.063	0.0152838
748.141	0.0153765
748.219	0.0154774
748.298	0.0154356
748.376	0.0153139
748.454	0.0153671
748.532	0.0153312
748.610	0.0154694
748.688	0.0154675
748.766	0.0153880
748.844	0.0152793
748.923	0.0152586
749.001	0.0151929
749.079	0.0152062
749.157	0.0154829
749.235	0.0153162
749.313	0.0152522
749.391	0.0152238
749.469	0.0150392
749.548	0.0152383
749.626	0.0149843
749.704	0.0150515
749.782	0.0150703
749.860	0.0149915
749.938	0.0148674
750.016	0.0149401
750.094	0.0148319
750.173	0.0147961
750.251	0.0148412
750.329	0.0147466
750.407	0.0147163
750.485	0.0147011
750.563	0.0145319
750.641	0.0145720
750.719	0.0146788
750.798	0.0146883
750.876	0.0147308
750.954	0.0146696
751.032	0.0147225
751.110	0.0148931
751.188	0.0148830
751.266	0.0148965
751.344	0.0148228
751.423	0.0150034
751.501	0.0150920
751.579	0.0150407
751.657	0.0149670
751.735	0.0150198
751.813	0.0149108
751.891	0.0149760
751.969	0.0149575
752.048	0.0149583
752.126	0.0147670
752.204	0.0148369
752.282	0.0147458
752.360	0.0146950
752.438	0.0146259
752.516	0.0147736
752.594	0.0148457
752.673	0.0147501
752.751	0.0148991
752.829	0.0149461
752.907	0.0149765
752.985	0.0150619
753.063	0.0152118
753.141	0.0153582
753.219	0.0153561
753.298	0.0154691
753.376	0.0155842
753.454	0.0156078
753.532	0.0155840
753.610	0.0157244
753.688	0.0156904
753.766	0.0157137
753.844	0.0157260
753.923	0.0156867
754.001	0.0155931
754.079	0.0156637
754.157	0.0154650
754.235	0.0153339
754.313	0.0155663
754.391	0.0155085
754.469	0.0154792
754.548	0.0152695
754.626	0.0153114
754.704	0.0153660
754.782	0.0152073
754.860	0.0152458
754.938	0.0151159
755.016	0.0150905
755.094	0.0150097
755.173	0.0149967
755.251	0.0149772
755.329	0.0148715
755.407	0.0147942
755.485	0.0148868
755.563	0.0147533
755.641	0.0147822
755.719	0.0146660
755.798	0.0148546
755.876	0.0147091
755.954	0.0145349
756.032	0.0146374
756.110	0.0146525
756.188	0.0146027
756.266	0.0146085
756.344	0.0144897
756.423	0.0147192
756.501	0.0146064
756.579	0.0146911
756.657	0.0147708
756.735	0.0147337
756.813	0.0147915
756.891	0.0147652
756.969	0.0148564
757.048	0.0148772
757.126	0.0149148
757.204	0.0147931
757.282	0.0148641
757.360	0.0148551
757.438	0.0148070
757.516	0.0148410
757.594	0.0149438
757.673	0.0147630
757.751	0.0148211
757.829	0.0149332
757.907	0.0147023
757.985	0.0148139
758.063	0.0149059
758.141	0.0150065
758.219	0.0148193
758.298	0.0149394
758.376	0.0148066
758.454	0.0150723
758.532	0.0150829
758.610	0.0151183
758.688	0.0151313
758.766	0.0151379
758.844	0.0151308
758.923	0.0152249
759.001	0.0154140
759.079	0.0153097
759.157	0.0154150
759.235	0.0153167
759.313	0.0154402
759.391	0.0155823
759.469	0.0155838
759.548	0.0155647
759.626	0.0156405
759.704	0.0155798
759.782	0.0155830
759.860	0.0154773
759.938	0.0154862
760.016	0.0154500
760.094	0.0154382
760.173	0.0154668
760.251	0.0153363
760.329	0.0152456
760.407	0.0151018
760.485	0.0150387
760.563	0.0149226
760.641	0.0147417
760.719	0.0148490
760.798	0.0147514
760.876	0.0147006
760.954	0.0145238
761.032	0.0145947
761.110	0.0146101
761.188	0.0143893
761.266	0.0145400
761.344	0.0145567
761.423	0.0145399
761.501	0.0146147
761.579	0.0147528
761.657	0.0146854
761.735	0.0147679
761.813	0.0147877
761.891	0.0150291
761.969	0.0150907
762.048	0.0152252
762.126	0.0153185
762.204	0.0152692
762.282	0.0152950
762.360	0.0154301
762.438	0.0154382
762.516	0.0153412
762.594	0.0153368
762.673	0.0153622
762.751	0.0152163
762.829	0.0151714
762.907	0.0152606
762.985	0.0152052
763.063	0.0150707
763.141	0.0150495
763.219	0.0149684
763.298	0.0150359
763.376	0.0148341
763.454	0.0148910
763.532	0.0148147
763.610	0.0148693
763.688	0.0148388
763.766	0.0148323
763.844	0.0150044
763.923	0.0148631
764.001	0.0149319
764.079	0.0148080
764.157	0.0149597
764.235	0.0150536
764.313	0.0150435
764.391	0.0150154
764.469	0.0150791
764.548	0.0152177
764.626	0.0153154
764.704	0.0153374
764.782	0.0154048
764.860	0.0155476
764.938	0.0155893
765.016	0.0156208
765.094	0.0156171
765.173	0.0155368
765.251	0.0155823
765.329	0.0155050
765.407	0.0155970
765.485	0.0155605
765.563	0.0155864
765.641	0.0154468
765.719	0.0154263
765.798	0.0155656
765.876	0.0151742
765.954	0.0149918
766.032	0.0151275
766.110	0.0149333
766.188	0.0148975
766.266	0.0148382
766.344	0.0148686
766.423	0.0146724
766.501	0.0144888
766.579	0.0145960
766.657	0.0145052
766.735	0.0145118
766.813	0.0143756
766.891	0.0144327
766.969	0.0144270
767.048	0.0143606
767.126	0.0143314
767.204	0.0144643
767.282	0.0144983
767.360	0.0146591
767.438	0.0145926
767.516	0.0147202
767.594	0.0148560
767.673	0.0148283
767.751	0.0150298
767.829	0.0151202
767.907	0.0150703
767.985	0.0151335
768.063	0.0151828
768.141	0.0152496
768.219	0.0153269
768.298	0.0153713
768.376	0.0153610
768.454	0.0155884
768.532	0.0155694
768.610	0.0156219
768.688	0.0156078
768.766	0.0155853
768.844	0.0157496
768.923	0.0157197
769.001	0.0157509
769.079	0.0157243
769.157	0.0157288
769.235	0.0156950
769.313	0.0155976
769.391	0.0154942
769.469	0.0155064
769.548	0.0154305
769.626	0.0152854
769.704	0.0151919
769.782	0.0151768
769.860	0.0150359
769.938	0.0149757
770.016	0.0148363
770.094	0.0147601
770.173	0.0147147
770.251	0.0147044
770.329	0.0147303
770.407	0.0145979
770.485	0.0144467
770.563	0.0146539
770.641	0.0145477
770.719	0.0144693
770.798	0.0144550
770.876	0.0145094
770.954	0.0143793
771.032	0.0143106
771.110	0.0144595
771.188	0.0145443
771.266	0.0144883
771.344	0.0143879
771.423	0.0144533
771.501	0.0144271
771.579	0.0143475
771.657	0.0145338
771.735	0.0145824
771.813	0.0146741
771.891	0.0146496
771.969	0.0148773
772.048	0.0148638
772.126	0.0149961
772.204	0.0150263
772.282	0.0150479
772.360	0.0152439
772.438	0.0153668
772.516	0.0154668
772.594	0.0153951
772.673	0.0154739
772.751	0.0155483
772.829	0.0156562
772.907	0.0157163
772.985	0.0155561
773.063	0.0156664
773.141	0.0156121
773.219	0.0156161
773.298	0.0157600
773.376	0.0157126
773.454	0.0157801
773.532	0.0154340
773.610	0.0154542
773.688	0.0154913
773.766	0.0153372
773.844	0.0153858
773.923	0.0153116
774.001	0.0151888
774.079	0.0151263
774.157	0.0150024
774.235	0.0151487
774.313	0.0151358
774.391	0.0149752
774.469	0.0149699
774.548	0.0150378
774.626	0.0150577
774.704	0.0149849
774.782	0.0150753
774.860	0.0150734
774.938	0.0150333
775.016	0.0153118
775.094	0.0152232
775.173	0.0152859
775.251	0.0151286
775.329	0.0152292
775.407	0.0152380
775.485	0.0152419
775.563	0.0151362
775.641	0.0152381
775.719	0.0151515
775.798	0.0150387
775.876	0.0151191
775.954	0.0150404
776.032	0.0149093
776.110	0.0148550
776.188	0.0149432
776.266	0.0146362
776.344	0.0147189
776.423	0.0147112
776.501	0.0146304
776.579	0.0146868
776.657	0.0147386
776.735	0.0147607
776.813	0.0145856
776.891	0.0146773
776.969	0.0146210
777.048	0.0148576
777.126	0.0147786
777.204	0.0148663
777.282	0.0148512
777.360	0.0150304
777.438	0.0150781
777.516	0.0149946
777.594	0.0150668
777.673	0.0150827
777.751	0.0151154
777.829	0.0150926
777.907	0.0152917
777.985	0.0151894
778.063	0.0152821
778.141	0.0153748
778.219	0.0153143
778.298	0.0153664
778.376	0.0155084
778.454	0.0153243
778.532	0.0153781
778.610	0.0153615
778.688	0.0152772
778.766	0.0152374
778.844	0.0152647
778.923	0.0153191
779.001	0.0152167
779.079	0.0152730
779.157	0.0152991
779.235	0.0152356
779.313	0.0151288
779.391	0.0152169
779.469	0.0151524
779.548	0.0150877
779.626	0.0152158
779.704	0.0149018
779.782	0.0151772
779.860	0.0152205
779.938	0.0150231
780.016	0.0150318
780.094	0.0149360
780.173	0.0150211
780.251	0.0150260
780.329	0.0149383
780.407	0.0149200
780.485	0.0149506
780.563	0.0149628
780.641	0.0150052
780.719	0.0147749
780.798	0.0150060
780.876	0.0150750
780.954	0.0149599
781.032	0.0148672
781.110	0.0149461
781.188	0.0150069
781.266	0.0149492
781.344	0.0149158
781.423	0.0149615
781.501	0.0149334
781.579	0.0150724
781.657	0.0151081
781.735	0.0150826
781.813	0.0151551
781.891	0.0151192
781.969	0.0151966
782.048	0.0152692
782.126	0.0151961
782.204	0.0150994
782.282	0.0151704
782.360	0.0152904
782.438	0.0151937
782.516	0.0151731
782.594	0.0150370
782.673	0.0150096
782.751	0.0149141
782.829	0.0150566
782.907	0.0148814
782.985	0.0147758
783.063	0.0149783
783.141	0.0149040
783.219	0.0149907
783.298	0.0147588
783.376	0.0147418
783.454	0.0147746
783.532	0.0148956
783.610	0.0148022
783.688	0.0148721
783.766	0.0147822
783.844	0.0147924
783.923	0.0148338
784.001	0.0149220
784.079	0.0148292
784.157	0.0149436
784.235	0.0148742
784.313	0.0149223
784.391	0.0149149
784.469	0.0150123
784.548	0.0149126
784.626	0.0149141
784.704	0.0150501
784.782	0.0150912
784.860	0.0150842
784.938	0.0150436
785.016	0.0148421
785.094	0.0148972
785.173	0.0149686
785.251	0.0148877
785.329	0.0149986
785.407	0.0152954
785.485	0.0152293
785.563	0.0151070
785.641	0.0151824
785.719	0.0152474
785.798	0.0152415
785.876	0.0153899
785.954	0.0154516
786.032	0.0155409
786.110	0.0154313
786.188	0.0152616
786.266	0.0153928
786.344	0.0154425
786.423	0.0154382
786.501	0.0154876
786.579	0.0154062
786.657	0.0151942
786.735	0.0153584
786.813	0.0151945
786.891	0.0151064
786.969	0.0150932
787.048	0.0151034
787.126	0.0150449
787.204	0.0151559
787.282	0.0150497
787.360	0.0149994
787.438	0.0150747
787.516	0.0151062
787.594	0.0150562
787.673	0.0149251
787.751	0.0148371
787.829	0.0149767
787.907	0.0149079
787.985	0.0149541
788.063	0.0148855
788.141	0.0147269
788.219	0.0147295
788.298	0.0148441
788.376	0.0148819
788.454	0.0147766
788.532	0.0148920
788.610	0.0148138
788.688	0.0149432
788.766	0.0149901
788.844	0.0150365
788.923	0.0150514
789.001	0.0152002
789.079	0.0149355
789.157	0.0149686
789.235	0.0149739
789.313	0.0149688
789.391	0.0151474
789.469	0.0151586
789.548	0.0151935
789.626	0.0150554
789.704	0.0151582
789.782	0.0152193
789.860	0.0152670
789.938	0.0152451
790.016	0.0152991
790.094	0.0152704
790.173	0.0153099
790.251	0.0152140
790.329	0.0152102
790.407	0.0150781
790.485	0.0150264
790.563	0.0148812
790.641	0.0149117
790.719	0.0148345
790.798	0.0148843
790.876	0.0147019
790.954	0.0145544
791.032	0.0146116
791.110	0.0145119
791.188	0.0144930
791.266	0.0145081
791.344	0.0145186
791.423	0.0146755
791.501	0.0147350
791.579	0.0148605
791.657	0.0147578
791.735	0.0148957
791.813	0.0148438
791.891	0.0149729
791.969	0.0150657
792.048	0.0151044
792.126	0.0152761
792.204	0.0156017
792.282	0.0156112
792.360	0.0155970
792.438	0.0155067
792.516	0.0156091
792.594	0.0156025
792.673	0.0156762
792.751	0.0156165
792.829	0.0155944
792.907	0.0155473
792.985	0.0154405
793.063	0.0154755
793.141	0.0153203
793.219	0.0152877
793.298	0.0151067
793.376	0.0149673
793.454	0.0148299
793.532	0.0147751
793.610	0.0148923
793.688	0.0147478
793.766	0.0147937
793.844	0.0148013
793.923	0.0148260
794.001	0.0147292
794.079	0.0147013
794.157	0.0145825
794.235	0.0148270
794.313	0.0147779
794.391	0.0149272
794.469	0.0149429
794.548	0.0149379
794.626	0.0149809
794.704	0.0149524
794.782	0.0150333
794.860	0.0151279
794.938	0.0150623
795.016	0.0151234
795.094	0.0152950
795.173	0.0152202
795.251	0.0152831
795.329	0.0153041
795.407	0.0152873
795.485	0.0151330
795.563	0.0152790
795.641	0.0154247
795.719	0.0153817
795.798	0.0152503
795.876	0.0154678
795.954	0.0154677
796.032	0.0153560
796.110	0.0153819
796.188	0.0152966
796.266	0.0153314
796.344	0.0153252
796.423	0.0152368
796.501	0.0152690
796.579	0.0152575
796.657	0.0151256
796.735	0.0149453
796.813	0.0149440
796.891	0.0149474
796.969	0.0148136
797.048	0.0148254
797.126	0.0146220
797.204	0.0145450
797.282	0.0145135
797.360	0.0143767
797.438	0.0143586
797.516	0.0142781
797.594	0.0143703
797.673	0.0143620
797.751	0.0143931
797.829	0.0142313
797.907	0.0143916
797.985	0.0145336
798.063	0.0145792
798.141	0.0147308
798.219	0.0148649
798.298	0.0148138
798.376	0.0150043
798.454	0.0151669
798.532	0.0152039
798.610	0.0152872
798.688	0.0154391
798.766	0.0153618
798.844	0.0155718
798.923	0.0156618
799.001	0.0156312
799.079	0.0157006
799.157	0.0158356
799.235	0.0157678
799.313	0.0157243
799.391	0.0156466
799.469	0.0157928
799.548	0.0156916
799.626	0.0156401
799.704	0.0156555
799.782	0.0156393
799.860	0.0154848
799.938	0.0155297
800.016	0.0153508
800.094	0.0153036
800.173	0.0153722
800.251	0.0153202
800.329	0.0150275
800.407	0.0151170
800.485	0.0149754
800.563	0.0150770
800.641	0.0148390
800.719	0.0148125
800.798	0.0148444
800.876	0.0146522
800.954	0.0145898
801.032	0.0146742
801.110	0.0147133
801.188	0.0146376
801.266	0.0145428
801.344	0.0146090
801.423	0.0145883
801.501	0.0147547
801.579	0.0147743
801.657	0.0146855
801.735	0.0147782
801.813	0.0148515
801.891	0.0149025
801.969	0.0148961
802.048	0.0148463
802.126	0.0150342
802.204	0.0149357
802.282	0.0149832
802.360	0.0150693
802.438	0.0149688
802.516	0.0150330
802.594	0.0149652
802.673	0.0148560
802.751	0.0148219
802.829	0.0150262
802.907	0.0151175
802.985	0.0149192
803.063	0.0148224
803.141	0.0150323
803.219	0.0149043
803.298	0.0148122
803.376	0.0149331
803.454	0.0150833
803.532	0.0150102
803.610	0.0150791
803.688	0.0150188
803.766	0.0150748
803.844	0.0151542
803.923	0.0151568
804.001	0.0150756
804.079	0.0151682
804.157	0.0151790
804.235	0.0152020
804.313	0.0153775
804.391	0.0154388
804.469	0.0154021
804.548	0.0153267
804.626	0.0153638
804.704	0.0153832
804.782	0.0154171
804.860	0.0153864
804.938	0.0152728
805.016	0.0153824
805.094	0.0154981
805.173	0.0151775
805.251	0.0151976
805.329	0.0152325
805.407	0.0151704
805.485	0.0150938
805.563	0.0150079
805.641	0.0150262
805.719	0.0150172
805.798	0.0149878
805.876	0.0149791
805.954	0.0147408
806.032	0.0148560
806.110	0.0148103
806.188	0.0148071
806.266	0.0148380
806.344	0.0149303
806.423	0.0147713
806.501	0.0147554
806.579	0.0148573
806.657	0.0147591
806.735	0.0148922
806.813	0.0149322
806.891	0.0148825
806.969	0.0148325
807.048	0.0150257
807.126	0.0150912
807.204	0.0149210
807.282	0.0149954
807.360	0.0150556
807.438	0.0151194
807.516	0.0150091
807.594	0.0149384
807.673	0.0151010
807.751	0.0152323
807.829	0.0151752
807.907	0.0151485
807.985	0.0151775
808.063	0.0153154
808.141	0.0151613
808.219	0.0152706
808.298	0.0153970
808.376	0.0150314
808.454	0.0151482
808.532	0.0152323
808.610	0.0152797
808.688	0.0153438
808.766	0.0151869
808.844	0.0151951
808.923	0.0151575
809.001	0.0152772
809.079	0.0151123
809.157	0.0151035
809.235	0.0150911
809.313	0.0150383
809.391	0.0147908
809.469	0.0148451
809.548	0.0150607
809.626	0.0148638
809.704	0.0148879
809.782	0.0147807
809.860	0.0149943
809.938	0.0150320
810.016	0.0148920
810.094	0.0148285
810.173	0.0149223
810.251	0.0150030
810.329	0.0149471
810.407	0.0150586
810.485	0.0149784
810.563	0.0148967
810.641	0.0149230
810.719	0.0148856
810.798	0.0148219
810.876	0.0148666
810.954	0.0148037
811.032	0.0147311
811.110	0.0148016
811.188	0.0148007
811.266	0.0148093
811.344	0.0148375
811.423	0.0148131
811.501	0.0150005
811.579	0.0149480
811.657	0.0150963
811.735	0.0150444
811.813	0.0150961
811.891	0.0150681
811.969	0.0152412
812.048	0.0151853
812.126	0.0152289
812.204	0.0152866
812.282	0.0152992
812.360	0.0153615
812.438	0.0154346
812.516	0.0152604
812.594	0.0154419
812.673	0.0153358
812.751	0.0154340
812.829	0.0153703
812.907	0.0152985
812.985	0.0153703
813.063	0.0153258
813.141	0.0152838
813.219	0.0153030
813.298	0.0151691
813.376	0.0151605
813.454	0.0152020
813.532	0.0151086
813.610	0.0151290
813.688	0.0151080
813.766	0.0149421
813.844	0.0149899
813.923	0.0149965
814.001	0.0148969
814.079	0.0148974
814.157	0.0149303
814.235	0.0148597
814.313	0.0147539
814.391	0.0148093
814.469	0.0147926
814.548	0.0147594
814.626	0.0146848
814.704	0.0147662
814.782	0.0148022
814.860	0.0147648
814.938	0.0147047
815.016	0.0146302
815.094	0.0145955
815.173	0.0145845
815.251	0.0146665
815.329	0.0145795
815.407	0.0146507
815.485	0.0145975
815.563	0.0146242
815.641	0.0147392
815.719	0.0146046
815.798	0.0146040
815.876	0.0148052
815.954	0.0150003
816.032	0.0150512
816.110	0.0148070
816.188	0.0150340
816.266	0.0151258
816.344	0.0150423
816.423	0.0150310
816.501	0.0151782
816.579	0.0151353
816.657	0.0151432
816.735	0.0151904
816.813	0.0152841
816.891	0.0151950
816.969	0.0152686
817.048	0.0153866
817.126	0.0154496
817.204	0.0151653
817.282	0.0152763
817.360	0.0153090
817.438	0.0152932
817.516	0.0153812
817.594	0.0153297
817.673	0.0153941
817.751	0.0154148
817.829	0.0154469
817.907	0.0153535
817.985	0.0154004
818.063	0.0152757
818.141	0.0152876
818.219	0.0152674
818.298	0.0154169
818.376	0.0153185
818.454	0.0150739
818.532	0.0151357
818.610	0.0150438
818.688	0.0150095
818.766	0.0151496
818.844	0.0149243
818.923	0.0147925
819.001	0.0148150
819.079	0.0148184
819.157	0.0146821
819.235	0.0145929
819.313	0.0146204
819.391	0.0146374
819.469	0.0146308
819.548	0.0146367
819.626	0.0145844
819.704	0.0146425
819.782	0.0145406
819.860	0.0145866
819.938	0.0146995
820.016	0.0147601
820.094	0.0145550
820.173	0.0146252
820.251	0.0147992
820.329	0.0146697
820.407	0.0149030
820.485	0.0147310
820.563	0.0148321
820.641	0.0148643
820.719	0.0146817
820.798	0.0147079
820.876	0.0148710
820.954	0.0147955
821.032	0.0148058
821.110	0.0149624
821.188	0.0149684
821.266	0.0149722
821.344	0.0150412
821.423	0.0150643
821.501	0.0152634
821.579	0.0151853
821.657	0.0152470
821.735	0.0151978
821.813	0.0153312
821.891	0.0151630
821.969	0.0151215
822.048	0.0152943
822.126	0.0154931
822.204	0.0154562
822.282	0.0153929
822.360	0.0154173
822.438	0.0153207
822.516	0.0152588
822.594	0.0154459
822.673	0.0152270
822.751	0.0151910
822.829	0.0153566
822.907	0.0153676
822.985	0.0150636
823.063	0.0151910
823.141	0.0152567
823.219	0.0151962
823.298	0.0150997
823.376	0.0150055
823.454	0.0151103
823.532	0.0150008
823.610	0.0150686
823.688	0.0150113
823.766	0.0149519
823.844	0.0149731
823.923	0.0148066
824.001	0.0146982
824.079	0.0146914
824.157	0.0145617
824.235	0.0145885
824.313	0.0145461
824.391	0.0145898
824.469	0.0144441
824.548	0.0144012
824.626	0.0146091
824.704	0.0145921
824.782	0.0144402
824.860	0.0144344
824.938	0.0143744
825.016	0.0145864
825.094	0.0143758
825.173	0.0144388
825.251	0.0147507
825.329	0.0146034
825.407	0.0146144
825.485	0.0148477
825.563	0.0149440
825.641	0.0148849
825.719	0.0149549
825.798	0.0150603
825.876	0.0150939
825.954	0.0151199
826.032	0.0150227
826.110	0.0151735
826.188	0.0152795
826.266	0.0153280
826.344	0.0153443
826.423	0.0153254
826.501	0.0154345
826.579	0.0154238
826.657	0.0154102
826.735	0.0155246
826.813	0.0156026
826.891	0.0155260
826.969	0.0154906
827.048	0.0155757
827.126	0.0155151
827.204	0.0155862
827.282	0.0154328
827.360	0.0156299
827.438	0.0155497
827.516	0.0155627
827.594	0.0154773
827.673	0.0153761
827.751	0.0153787
827.829	0.0153675
827.907	0.0152216
827.985	0.0152915
828.063	0.0152651
828.141	0.0152151
828.219	0.0151833
828.298	0.0151015
828.376	0.0150649
828.454	0.0148660
828.532	0.0149679
828.610	0.0147518
828.688	0.0147697
828.766	0.0148052
828.844	0.0147080
828.923	0.0147171
829.001	0.0147899
829.079	0.0148280
829.157	0.0146464
829.235	0.0144228
829.313	0.0144857
829.391	0.0145184
829.469	0.0144051
829.548	0.0144563
829.626	0.0143411
829.704	0.0144321
829.782	0.0144305
829.860	0.0145014
829.938	0.0144996
830.016	0.0143954
830.094	0.0143091
830.173	0.0145651
830.251	0.0144906
830.329	0.0146345
830.407	0.0147086
830.485	0.0148360
830.563	0.0148614
830.641	0.0149316
830.719	0.0150752
830.798	0.0151048
830.876	0.0151526
830.954	0.0152511
831.032	0.0153089
831.110	0.0153593
831.188	0.0155025
831.266	0.0154612
831.344	0.0155134
831.423	0.0154864
831.501	0.0155824
831.579	0.0157701
831.657	0.0157503
831.735	0.0158012
831.813	0.0158096
831.891	0.0157676
831.969	0.0155667
832.048	0.0156614
832.126	0.0156427
832.204	0.0156694
832.282	0.0156334
832.360	0.0156068
832.438	0.0155624
832.516	0.0153403
832.594	0.0154585
832.673	0.0152834
832.751	0.0152980
832.829	0.0152715
832.907	0.0153448
832.985	0.0152979
833.063	0.0153407
833.141	0.0151772
833.219	0.0151369
833.298	0.0150360
833.376	0.0150422
833.454	0.0150403
833.532	0.0148569
833.610	0.0149899
833.688	0.0148129
833.766	0.0146779
833.844	0.0147533
833.923	0.0147489
834.001	0.0146655
834.079	0.0145605
834.157	0.0144661
834.235	0.0144537
834.313	0.0143797
834.391	0.0144894
834.469	0.0143514
834.548	0.0143803
834.626	0.0144099
834.704	0.0144035
834.782	0.0143715
834.860	0.0144060
834.938	0.0145734
835.016	0.0144576
835.094	0.0146811
835.173	0.0146891
835.251	0.0147044
835.329	0.0148010
835.407	0.0147645
835.485	0.0149207
835.563	0.0148505
835.641	0.0148061
835.719	0.0150047
835.798	0.0150639
835.876	0.0151579
835.954	0.0151669
836.032	0.0152740
836.110	0.0151708
836.188	0.0154455
836.266	0.0154551
836.344	0.0154288
836.423	0.0155028
836.501	0.0154945
836.579	0.0156250
836.657	0.0157468
836.735	0.0157685
836.813	0.0156180
836.891	0.0155733
836.969	0.0156023
837.048	0.0157325
837.126	0.0156373
837.204	0.0156049
837.282	0.0156685
837.360	0.0156475
837.438	0.0155764
837.516	0.0154610
837.594	0.0152953
837.673	0.0152421
837.751	0.0154311
837.829	0.0154652
837.907	0.0152809
837.985	0.0151172
838.063	0.0151135
838.141	0.0151846
838.219	0.0151063
838.298	0.0149644
838.376	0.0149451
838.454	0.0149072
838.532	0.0150266
838.610	0.0149612
838.688	0.0148196
838.766	0.0147541
838.844	0.0147857
838.923	0.0148426
839.001	0.0147307
839.079	0.0147125
839.157	0.0146729
839.235	0.0147269
839.313	0.0147879
839.391	0.0147366
839.469	0.0147384
839.548	0.0145870
839.626	0.0146701
839.704	0.0147186
839.782	0.0147749
839.860	0.0147707
839.938	0.0147347
840.016	0.0148764
840.094	0.0148826
840.173	0.0150381
840.251	0.0150771
840.329	0.0150480
840.407	0.0150067
840.485	0.0150075
840.563	0.0150673
840.641	0.0153127
840.719	0.0152255
840.798	0.0151841
840.876	0.0151194
840.954	0.0152555
841.032	0.0151510
841.110	0.0152783
841.188	0.0153295
841.266	0.0152991
841.344	0.0151814
841.423	0.0152062
841.501	0.0152716
841.579	0.0151226
841.657	0.0151670
841.735	0.0152046
841.813	0.0151189
841.891	0.0151601
841.969	0.0150708
842.048	0.0151535
842.126	0.0150523
842.204	0.0150297
842.282	0.0151536
842.360	0.0150816
842.438	0.0150446
842.516	0.0149620
842.594	0.0150663
842.673	0.0150130
842.751	0.0149702
842.829	0.0149786
842.907	0.0149524
842.985	0.0148921
843.063	0.0149899
843.141	0.0149396
843.219	0.0150871
843.298	0.0150967
843.376	0.0150865
843.454	0.0150565
843.532	0.0149574
843.610	0.0151484
843.688	0.0150696
843.766	0.0150357
843.844	0.0150245
843.923	0.0150574
844.001	0.0151508
844.079	0.0151440
844.157	0.0152250
844.235	0.0151688
844.313	0.0151089
844.391	0.0151933
844.469	0.0151847
844.548	0.0151663
844.626	0.0151938
844.704	0.0151957
844.782	0.0151917
844.860	0.0150666
844.938	0.0152393
845.016	0.0151693
845.094	0.0151859
845.173	0.0150877
845.251	0.0151555
845.329	0.0151540
845.407	0.0149554
845.485	0.0151254
845.563	0.0151753
845.641	0.0150764
845.719	0.0151337
845.798	0.0152219
845.876	0.0150787
845.954	0.0150524
846.032	0.0152149
846.110	0.0152164
846.188	0.0152188
846.266	0.0151010
846.344	0.0152724
846.423	0.0151965
846.501	0.0151180
846.579	0.0150112
846.657	0.0151143
846.735	0.0150279
846.813	0.0151173
846.891	0.0151812
846.969	0.0149883
847.048	0.0149860
847.126	0.0148006
847.204	0.0149313
847.282	0.0148184
847.360	0.0148000
847.438	0.0148405
847.516	0.0146880
847.594	0.0146844
847.673	0.0147900
847.751	0.0146574
847.829	0.0147952
847.907	0.0148086
847.985	0.0146696
848.063	0.0147210
848.141	0.0148783
848.219	0.0147839
848.298	0.0147839
848.376	0.0149987
848.454	0.0149982
848.532	0.0149149
848.610	0.0149611
848.688	0.0150776
848.766	0.0150095
848.844	0.0151537
848.923	0.0151281
849.001	0.0151105
849.079	0.0151690
849.157	0.0152795
849.235	0.0152923
849.313	0.0153208
849.391	0.0153170
849.469	0.0151090
849.548	0.0152628
849.626	0.0153297
849.704	0.0152933
849.782	0.0151367
849.860	0.0152411
849.938	0.0152673
850.016	0.0152055
850.094	0.0151225
850.173	0.0150668
850.251	0.0151986
850.329	0.0150756
850.407	0.0151806
850.485	0.0152535
850.563	0.0152114
850.641	0.0151100
850.719	0.0152216
850.798	0.0150311
850.876	0.0151685
850.954	0.0151228
851.032	0.0151875
851.110	0.0150307
851.188	0.0151363
851.266	0.0151600
851.344	0.0150832
851.423	0.0150851
851.501	0.0151515
851.579	0.0151331
851.657	0.0151038
851.735	0.0149870
851.813	0.0151963
851.891	0.0149968
851.969	0.0149731
852.048	0.0151950
852.126	0.0151209
852.204	0.0150792
852.282	0.0150826
852.360	0.0151554
852.438	0.0152137
852.516	0.0150148
852.594	0.0151090
852.673	0.0151806
852.751	0.0152466
852.829	0.0152342
852.907	0.0151613
852.985	0.0150880
853.063	0.0149765
853.141	0.0150142
853.219	0.0149454
853.298	0.0150622
853.376	0.0150309
853.454	0.0149389
853.532	0.0149767
853.610	0.0148171
853.688	0.0148990
853.766	0.0149508
853.844	0.0149137
853.923	0.0148701
854.001	0.0148308
854.079	0.0148521
854.157	0.0146998
854.235	0.0147988
854.313	0.0149672
854.391	0.0147066
854.469	0.0147919
854.548	0.0147289
854.626	0.0148646
854.704	0.0147684
854.782	0.0147604
854.860	0.0146867
854.938	0.0148386
855.016	0.0148853
855.094	0.0149542
855.173	0.0149683
855.251	0.0148207
855.329	0.0150703
855.407	0.0151085
855.485	0.0151646
855.563	0.0152452
855.641	0.0151904
855.719	0.0151853
855.798	0.0152922
855.876	0.0152767
855.954	0.0151667
856.032	0.0152942
856.110	0.0154236
856.188	0.0155057
856.266	0.0154514
856.344	0.0155642
856.423	0.0155892
856.501	0.0154893
856.579	0.0153944
856.657	0.0152828
856.735	0.0155028
856.813	0.0154008
856.891	0.0153490
856.969	0.0153242
857.048	0.0152830
857.126	0.0153529
857.204	0.0152913
857.282	0.0153205
857.360	0.0152661
857.438	0.0152798
857.516	0.0153565
857.594	0.0154276
857.673	0.0153719
857.751	0.0153895
857.829	0.0153198
857.907	0.0153120
857.985	0.0152652
858.063	0.0152573
858.141	0.0153371
858.219	0.0152024
858.298	0.0150953
858.376	0.0150483
858.454	0.0150892
858.532	0.0151372
858.610	0.0150983
858.688	0.0149821
858.766	0.0149191
858.844	0.0148621
858.923	0.0150893
859.001	0.0149039
859.079	0.0148326
859.157	0.0145599
859.235	0.0147691
859.313	0.0146939
859.391	0.0146928
859.469	0.0145876
859.548	0.0146716
859.626	0.0145107
859.704	0.0143287
859.782	0.0143452
859.860	0.0143430
859.938	0.0144478
860.016	0.0142970
860.094	0.0143530
860.173	0.0145478
860.251	0.0146559
860.329	0.0144920
860.407	0.0146307
860.485	0.0147630
860.563	0.0146459
860.641	0.0147157
860.719	0.0148499
860.798	0.0149857
860.876	0.0149767
860.954	0.0150179
861.032	0.0151238
861.110	0.0152977
861.188	0.0153470
861.266	0.0152377
861.344	0.0152602
861.423	0.0153714
861.501	0.0153780
861.579	0.0154576
861.657	0.0156010
861.735	0.0156476
861.813	0.0155382
861.891	0.0156176
861.969	0.0156943
862.048	0.0155624
862.126	0.0155840
862.204	0.0156134
862.282	0.0154502
862.360	0.0154741
862.438	0.0155982
862.516	0.0153633
862.594	0.0155061
862.673	0.0154986
862.751	0.0154771
862.829	0.0153022
862.907	0.0153304
862.985	0.0153572
863.063	0.0153517
863.141	0.0154071
863.219	0.0152631
863.298	0.0153580
863.376	0.0154234
863.454	0.0152189
863.532	0.0150603
863.610	0.0152266
863.688	0.0152442
863.766	0.0152039
863.844	0.0149874
863.923	0.0150657
864.001	0.0149953
864.079	0.0149635
864.157	0.0150631
864.235	0.0148238
864.313	0.0148750
864.391	0.0148153
864.469	0.0147283
864.548	0.0149103
864.626	0.0148615
864.704	0.0147282
864.782	0.0148145
864.860	0.0147331
864.938	0.0146304
865.016	0.0147595
865.094	0.0147493
865.173	0.0147375
865.251	0.0147409
865.329	0.0147643
865.407	0.0147003
865.485	0.0148144
865.563	0.0147988
865.641	0.0147121
865.719	0.0148195
865.798	0.0148022
865.876	0.0148969
865.954	0.0148214
866.032	0.0149974
866.110	0.0148706
866.188	0.0149503
866.266	0.0149641
866.344	0.0151090
866.423	0.0151071
866.501	0.0150265
866.579	0.0149775
866.657	0.0151612
866.735	0.0152185
866.813	0.0151604
866.891	0.0151682
866.969	0.0150119
867.048	0.0151778
867.126	0.0151665
867.204	0.0150783
867.282	0.0150819
867.360	0.0150294
867.438	0.0150971
867.516	0.0150358
867.594	0.0150140
867.673	0.0151442
867.751	0.0152157
867.829	0.0151054
867.907	0.0151842
867.985	0.0152411
868.063	0.0153545
868.141	0.0152369
868.219	0.0152222
868.298	0.0153497
868.376	0.0153686
868.454	0.0153326
868.532	0.0153366
868.610	0.0152941
868.688	0.0151650
868.766	0.0152521
868.844	0.0152226
868.923	0.0152663
869.001	0.0151619
869.079	0.0152315
869.157	0.0152146
869.235	0.0151825
869.313	0.0150230
869.391	0.0150514
869.469	0.0151360
869.548	0.0149075
869.626	0.0150437
869.704	0.0151112
869.782	0.0150479
869.860	0.0150152
869.938	0.0151625
870.016	0.0150421
870.094	0.0149755
870.173	0.0150200
870.251	0.0149842
870.329	0.0149028
870.407	0.0149491
870.485	0.0150517
870.563	0.0149773
870.641	0.0148941
870.719	0.0149869
870.798	0.0149133
870.876	0.0149664
870.954	0.0150098
871.032	0.0149980
871.110	0.0150688
871.188	0.0152022
871.266	0.0150270
871.344	0.0149965
871.423	0.0149664
871.501	0.0151018
871.579	0.0150902
871.657	0.0152004
871.735	0.0152066
871.813	0.0150551
871.891	0.0149629
871.969	0.0150484
872.048	0.0149461
872.126	0.0150069
872.204	0.0149918
872.282	0.0150810
872.360	0.0150021
872.438	0.0149824
872.516	0.0149250
872.594	0.0149035
872.673	0.0148650
872.751	0.0148328
872.829	0.0148895
872.907	0.0149255
872.985	0.0148896
873.063	0.0149942
873.141	0.0148186
873.219	0.0148751
873.298	0.0149046
873.376	0.0148806
873.454	0.0148746
873.532	0.0148599
873.610	0.0149451
873.688	0.0148748
873.766	0.0148810
873.844	0.0150452
873.923	0.0149794
874.001	0.0149915
874.079	0.0150560
874.157	0.0149768
874.235	0.0151662
874.313	0.0151125
874.391	0.0151566
874.469	0.0152120
874.548	0.0152422
874.626	0.0152772
874.704	0.0152847
874.782	0.0152554
874.860	0.0152747
874.938	0.0152901
875.016	0.0153820
875.094	0.0152675
875.173	0.0153114
875.251	0.0152693
875.329	0.0153645
875.407	0.0152899
875.485	0.0153078
875.563	0.0154794
875.641	0.0153481
875.719	0.0152034
875.798	0.0152561
875.876	0.0154781
875.954	0.0153651
876.032	0.0153055
876.110	0.0152386
876.188	0.0152663
876.266	0.0154120
876.344	0.0152956
876.423	0.0151852
876.501	0.0151404
876.579	0.0151552
876.657	0.0152485
876.735	0.0150669
876.813	0.0149316
876.891	0.0149323
876.969	0.0149590
877.048	0.0150665
877.126	0.0149495
877.204	0.0149353
877.282	0.0148227
877.360	0.0149187
877.438	0.0148181
877.516	0.0148284
877.594	0.0148857
877.673	0.0148379
877.751	0.0146766
877.829	0.0147644
877.907	0.0146833
877.985	0.0148176
878.063	0.0148299
878.141	0.0147340
878.219	0.0147284
878.298	0.0148161
878.376	0.0148380
878.454	0.0148040
878.532	0.0148804
878.610	0.0149853
878.688	0.0148608
878.766	0.0149279
878.844	0.0149584
878.923	0.0148749
879.001	0.0150031
879.079	0.0148293
879.157	0.0149007
879.235	0.0150478
879.313	0.0150063
879.391	0.0149149
879.469	0.0149474
879.548	0.0149171
879.626	0.0150494
879.704	0.0148854
879.782	0.0148926
879.860	0.0149833
879.938	0.0149371
880.016	0.0150610
880.094	0.0151612
880.173	0.0152473
880.251	0.0151043
880.329	0.0150078
880.407	0.0150903
880.485	0.0152306
880.563	0.0150857
880.641	0.0151673
880.719	0.0151472
880.798	0.0152148
880.876	0.0152413
880.954	0.0151891
881.032	0.0151159
881.110	0.0150628
881.188	0.0150665
881.266	0.0151065
881.344	0.0150700
881.423	0.0150646
881.501	0.0152402
881.579	0.0151831
881.657	0.0150241
881.735	0.0150742
881.813	0.0150987
881.891	0.0152238
881.969	0.0151696
882.048	0.0149768
882.126	0.0151329
882.204	0.0150477
882.282	0.0149298
882.360	0.0149734
882.438	0.0149836
882.516	0.0149714
882.594	0.0150461
882.673	0.0150957
882.751	0.0153098
882.829	0.0153079
882.907	0.0153051
882.985	0.0153229
883.063	0.0154292
883.141	0.0153451
883.219	0.0152984
883.298	0.0151838
883.376	0.0151549
883.454	0.0149182
883.532	0.0148888
883.610	0.0147278
883.688	0.0146128
883.766	0.0143942
883.844	0.0143428
883.923	0.0142274
884.001	0.0142651
884.079	0.0144727
884.157	0.0143217
884.235	0.0143296
884.313	0.0144508
884.391	0.0146866
884.469	0.0148900
884.548	0.0149088
884.626	0.0150095
884.704	0.0149977
884.782	0.0151780
884.860	0.0153336
884.938	0.0153262
885.016	0.0153988
885.094	0.0154073
885.173	0.0154610
885.251	0.0154974
885.329	0.0151620
885.407	0.0153160
885.485	0.0152595
885.563	0.0152325
885.641	0.0150947
885.719	0.0151025
885.798	0.0149538
885.876	0.0148473
885.954	0.0149185
886.032	0.0148592
886.110	0.0148222
886.188	0.0147811
886.266	0.0149078
886.344	0.0149114
886.423	0.0148441
886.501	0.0150119
886.579	0.0150659
886.657	0.0150903
886.735	0.0149846
886.813	0.0152162
886.891	0.0154025
886.969	0.0151266
887.048	0.0151305
887.126	0.0152647
887.204	0.0151910
887.282	0.0153061
887.360	0.0151858
887.438	0.0152425
887.516	0.0152153
887.594	0.0151475
887.673	0.0150577
887.751	0.0150282
887.829	0.0151356
887.907	0.0149631
887.985	0.0150675
888.063	0.0149272
888.141	0.0148379
888.219	0.0148444
888.298	0.0146278
888.376	0.0146355
888.454	0.0147439
888.532	0.0147093
888.610	0.0145587
888.688	0.0144646
888.766	0.0146199
888.844	0.0145951
888.923	0.0145472
889.001	0.0146722
889.079	0.0146975
889.157	0.0145802
889.235	0.0148071
889.313	0.0147775
889.391	0.0149390
889.469	0.0149287
889.548	0.0149269
889.626	0.0150163
889.704	0.0150816
889.782	0.0151448
889.860	0.0150809
889.938	0.0150742
890.016	0.0153281
890.094	0.0153653
890.173	0.0153427
890.251	0.0154596
890.329	0.0153899
890.407	0.0152729
890.485	0.0154213
890.563	0.0152340
890.641	0.0153365
890.719	0.0153806
890.798	0.0152609
890.876	0.0152145
890.954	0.0152428
891.032	0.0152888
891.110	0.0152074
891.188	0.0151009
891.266	0.0150263
891.344	0.0149832
891.423	0.0149271
891.501	0.0150444
891.579	0.0148508
891.657	0.0147416
891.735	0.0148148
891.813	0.0148364
891.891	0.0147997
891.969	0.0147868
892.048	0.0149554
892.126	0.0148688
892.204	0.0147539
892.282	0.0147653
892.360	0.0147744
892.438	0.0149186
892.516	0.0148585
892.594	0.0148688
892.673	0.0151000
892.751	0.0149466
892.829	0.0150560
892.907	0.0152316
892.985	0.0151718
893.063	0.0151118
893.141	0.0151145
893.219	0.0153157
893.298	0.0151022
893.376	0.0151221
893.454	0.0152537
893.532	0.0151109
893.610	0.0151433
893.688	0.0152011
893.766	0.0153271
893.844	0.0150874
893.923	0.0150223
894.001	0.0151536
894.079	0.0151554
894.157	0.0150684
894.235	0.0151311
894.313	0.0150895
894.391	0.0149314
894.469	0.0147955
894.548	0.0150497
894.626	0.0148200
894.704	0.0148299
894.782	0.0147369
894.860	0.0146925
894.938	0.0148617
895.016	0.0148782
895.094	0.0148242
895.173	0.0148831
895.251	0.0147773
895.329	0.0148013
895.407	0.0148450
895.485	0.0148225
895.563	0.0148746
895.641	0.0150003
895.719	0.0150008
895.798	0.0150513
895.876	0.0150154
895.954	0.0151031
896.032	0.0152457
896.110	0.0151288
896.188	0.0150975
896.266	0.0152319
896.344	0.0152808
896.423	0.0151177
896.501	0.0152561
896.579	0.0151758
896.657	0.0151164
896.735	0.0151546
896.813	0.0152318
896.891	0.0151373
896.969	0.0150665
897.048	0.0151026
897.126	0.0152541
897.204	0.0149955
897.282	0.0151781
897.360	0.0151472
897.438	0.0149727
897.516	0.0151027
897.594	0.0153739
897.673	0.0151814
897.751	0.0152020
897.829	0.0152506
897.907	0.0151517
897.985	0.0150723
898.063	0.0150711
898.141	0.0150628
898.219	0.0150623
898.298	0.0151827
898.376	0.0152405
898.454	0.0151492
898.532	0.0151279
898.610	0.0149690
898.688	0.0149041
898.766	0.0148543
898.844	0.0149028
898.923	0.0147454
899.001	0.0147060
899.079	0.0144906
899.157	0.0147166
899.235	0.0147850
899.313	0.0146094
899.391	0.0147370
899.469	0.0147707
899.548	0.0148072
899.626	0.0147606
899.704	0.0149490
899.782	0.0149101
899.860	0.0150767
899.938	0.0149585
900.016	0.0147962
900.094	0.0149128
900.173	0.0150216
900.251	0.0150436
900.329	0.0149406
900.407	0.0149073
900.485	0.0148817
900.563	0.0149486
900.641	0.0148782
900.719	0.0148657
900.798	0.0149578
900.876	0.0149352
900.954	0.0151105
901.032	0.0151814
901.110	0.0152010
901.188	0.0151855
901.266	0.0151307
901.344	0.0151340
901.423	0.0152229
901.501	0.0151015
901.579	0.0151208
901.657	0.0152171
901.735	0.0150868
901.813	0.0151947
901.891	0.0150405
901.969	0.0151109
902.048	0.0150598
902.126	0.0150904
902.204	0.0151324
902.282	0.0149828
902.360	0.0151517
902.438	0.0151475
902.516	0.0151694
902.594	0.0150732
902.673	0.0152071
902.751	0.0150478
902.829	0.0151250
902.907	0.0151357
902.985	0.0151009
903.063	0.0151327
903.141	0.0151402
903.219	0.0150993
903.298	0.0151241
903.376	0.0152009
903.454	0.0150858
903.532	0.0150999
903.610	0.0150622
903.688	0.0150175
903.766	0.0149975
903.844	0.0148415
903.923	0.0148568
904.001	0.0149556
904.079	0.0148176
904.157	0.0147373
904.235	0.0147472
904.313	0.0146954
904.391	0.0147154
904.469	0.0147628
904.548	0.0148270
904.626	0.0148006
904.704	0.0146497
904.782	0.0147975
904.860	0.0147836
904.938	0.0148222
905.016	0.0145943
905.094	0.0146000
905.173	0.0147517
905.251	0.0148339
905.329	0.0147756
905.407	0.0146957
905.485	0.0146893
905.563	0.0146915
905.641	0.0148947
905.719	0.0148610
905.798	0.0148846
905.876	0.0149749
905.954	0.0149216
906.032	0.0149333
906.110	0.0150198
906.188	0.0150794
906.266	0.0151758
906.344	0.0149821
906.423	0.0152137
906.501	0.0152905
906.579	0.0151900
906.657	0.0152809
906.735	0.0152133
906.813	0.0153455
906.891	0.0155075
906.969	0.0153361
907.048	0.0152974
907.126	0.0152063
907.204	0.0152499
907.282	0.0154008
907.360	0.0153378
907.438	0.0151691
907.516	0.0150991
907.594	0.0152017
907.673	0.0150054
907.751	0.0150990
907.829	0.0150024
907.907	0.0150233
907.985	0.0150148
908.063	0.0148257
908.141	0.0148055
908.219	0.0148512
908.298	0.0147215
908.376	0.0148202
908.454	0.0149883
908.532	0.0147195
908.610	0.0148763
908.688	0.0148792
908.766	0.0148711
908.844	0.0149476
908.923	0.0149850
909.001	0.0150579
909.079	0.0151880
909.157	0.0151397
909.235	0.0151183
909.313	0.0153154
909.391	0.0151797
909.469	0.0150288
909.548	0.0152004
909.626	0.0152060
909.704	0.0150394
909.782	0.0151694
909.860	0.0150024
909.938	0.0150695
910.016	0.0150812
910.094	0.0150260
910.173	0.0148591
910.251	0.0149028
910.329	0.0149318
910.407	0.0147977
910.485	0.0148674
910.563	0.0148180
910.641	0.0147781
910.719	0.0146616
910.798	0.0148499
910.876	0.0147861
910.954	0.0147929
911.032	0.0148595
911.110	0.0149224
911.188	0.0149227
911.266	0.0149251
911.344	0.0148845
911.423	0.0149899
911.501	0.0150058
911.579	0.0151121
911.657	0.0151081
911.735	0.0150729
911.813	0.0152251
911.891	0.0152814
911.969	0.0151910
912.048	0.0152334
912.126	0.0151319
912.204	0.0151800
912.282	0.0152000
912.360	0.0150686
912.438	0.0149964
912.516	0.0151362
912.594	0.0150782
912.673	0.0148979
912.751	0.0148816
912.829	0.0148717
912.907	0.0148913
912.985	0.0147173
913.063	0.0147501
913.141	0.0147271
913.219	0.0147901
913.298	0.0148714
913.376	0.0147674
913.454	0.0146914
913.532	0.0148482
913.610	0.0149065
913.688	0.0149727
913.766	0.0150057
913.844	0.0148480
913.923	0.0150557
914.001	0.0151033
914.079	0.0151444
914.157	0.0152935
914.235	0.0151089
914.313	0.0151721
914.391	0.0153989
914.469	0.0151904
914.548	0.0152541
914.626	0.0153362
914.704	0.0152176
914.782	0.0153086
914.860	0.0152254
914.938	0.0153462
915.016	0.0150655
915.094	0.0150581
915.173	0.0151790
915.251	0.0150728
915.329	0.0150289
915.407	0.0149899
915.485	0.0150152
915.563	0.0149680
915.641	0.0148176
915.719	0.0148199
915.798	0.0149150
915.876	0.0147448
915.954	0.0146693
916.032	0.0147552
916.110	0.0147681
916.188	0.0148202
916.266	0.0147519
916.344	0.0148969
916.423	0.0148484
916.501	0.0149076
916.579	0.0150471
916.657	0.0148503
916.735	0.0149842
916.813	0.0150758
916.891	0.0150952
916.969	0.0149671
917.048	0.0150100
917.126	0.0150625
917.204	0.0150911
917.282	0.0151273
917.360	0.0149891
917.438	0.0150967
917.516	0.0149535
917.594	0.0150876
917.673	0.0151376
917.751	0.0150711
917.829	0.0150397
917.907	0.0150669
917.985	0.0150684
918.063	0.0150557
918.141	0.0148344
918.219	0.0149909
918.298	0.0149909
918.376	0.0150996
918.454	0.0149615
918.532	0.0149479
918.610	0.0151015
918.688	0.0148915
918.766	0.0150166
918.844	0.0149974
918.923	0.0149773
919.001	0.0150880
919.079	0.0149658
919.157	0.0149796
919.235	0.0149191
919.313	0.0150530
919.391	0.0151242
919.469	0.0151319
919.548	0.0150695
919.626	0.0151266
919.704	0.0152644
919.782	0.0151462
919.860	0.0152128
919.938	0.0152943
920.016	0.0152588
920.094	0.0151688
920.173	0.0153077
920.251	0.0152388
920.329	0.0152753
920.407	0.0151743
920.485	0.0151688
920.563	0.0152061
920.641	0.0151540
920.719	0.0151347
920.798	0.0149504
920.876	0.0149888
920.954	0.0149461
921.032	0.0149519
921.110	0.0148717
921.188	0.0148678
921.266	0.0148121
921.344	0.0148859
921.423	0.0148404
921.501	0.0147089
921.579	0.0148151
921.657	0.0147803
921.735	0.0149323
921.813	0.0148312
921.891	0.0149392
921.969	0.0148682
922.048	0.0148965
922.126	0.0149398
922.204	0.0149465
922.282	0.0151056
922.360	0.0150018
922.438	0.0149338
922.516	0.0151502
922.594	0.0151840
922.673	0.0151186
922.751	0.0151698
922.829	0.0150668
922.907	0.0151141
922.985	0.0151424
923.063	0.0152344
923.141	0.0152345
923.219	0.0153692
923.298	0.0152543
923.376	0.0153224
923.454	0.0153631
923.532	0.0151859
923.610	0.0151766
923.688	0.0152963
923.766	0.0152145
923.844	0.0152030
923.923	0.0152853
924.001	0.0150356
924.079	0.0151424
924.157	0.0150629
924.235	0.0150497
924.313	0.0149477
924.391	0.0150409
924.469	0.0151377
924.548	0.0148416
924.626	0.0150019
924.704	0.0150510
924.782	0.0149619
924.860	0.0149991
924.938	0.0148749
925.016	0.0148078
925.094	0.0148523
925.173	0.0148677
925.251	0.0149885
925.329	0.0148438
925.407	0.0148609
925.485	0.0149778
925.563	0.0148931
925.641	0.0147863
925.719	0.0148572
925.798	0.0149370
925.876	0.0149127
925.954	0.0148920
926.032	0.0149100
926.110	0.0148090
926.188	0.0148232
926.266	0.0148681
926.344	0.0148227
926.423	0.0150129
926.501	0.0150409
926.579	0.0149267
926.657	0.0148488
926.735	0.0150368
926.813	0.0149899
926.891	0.0151287
926.969	0.0150493
927.048	0.0150781
927.126	0.0152427
927.204	0.0151202
927.282	0.0151543
927.360	0.0151350
927.438	0.0152308
927.516	0.0150814
927.594	0.0151915
927.673	0.0151482
927.751	0.0151839
927.829	0.0152636
927.907	0.0151657
927.985	0.0151526
928.063	0.0150888
928.141	0.0149947
928.219	0.0151105
928.298	0.0150713
928.376	0.0150646
928.454	0.0149200
928.532	0.0149813
928.610	0.0150480
928.688	0.0150527
928.766	0.0150176
928.844	0.0149580
928.923	0.0149464
929.001	0.0149878
929.079	0.0149712
929.157	0.0149627
929.235	0.0149668
929.313	0.0151221
929.391	0.0150299
929.469	0.0148996
929.548	0.0149242
929.626	0.0149357
929.704	0.0149145
929.782	0.0149559
929.860	0.0148280
929.938	0.0150487
930.016	0.0150329
930.094	0.0148965
930.173	0.0148743
930.251	0.0149473
930.329	0.0148982
930.407	0.0147822
930.485	0.0150267
930.563	0.0150326
930.641	0.0149052
930.719	0.0151009
930.798	0.0150389
930.876	0.0148841
930.954	0.0150655
931.032	0.0150301
931.110	0.0150900
931.188	0.0151242
931.266	0.0150294
931.344	0.0151182
931.423	0.0151641
931.501	0.0151212
931.579	0.0149209
931.657	0.0150845
931.735	0.0151199
931.813	0.0149828
931.891	0.0150779
931.969	0.0151696
932.048	0.0151252
932.126	0.0152467
932.204	0.0150715
932.282	0.0150493
932.360	0.0151856
932.438	0.0151271
932.516	0.0150132
932.594	0.0151662
932.673	0.0151135
932.751	0.0150840
932.829	0.0148934
932.907	0.0150401
932.985	0.0150273
933.063	0.0150449
933.141	0.0149990
933.219	0.0150801
933.298	0.0150001
933.376	0.0149516
933.454	0.0149455
933.532	0.0149290
933.610	0.0148686
933.688	0.0150135
933.766	0.0149709
933.844	0.0148486
933.923	0.0150593
934.001	0.0150974
934.079	0.0150626
934.157	0.0152187
934.235	0.0151244
934.313	0.0151926
934.391	0.0151225
934.469	0.0153512
934.548	0.0152459
934.626	0.0153110
934.704	0.0151887
934.782	0.0153090
934.860	0.0151942
934.938	0.0152277
935.016	0.0152138
935.094	0.0150828
935.173	0.0149369
935.251	0.0150544
935.329	0.0150964
935.407	0.0149928
935.485	0.0148842
935.563	0.0149885
935.641	0.0150017
935.719	0.0149776
935.798	0.0147144
935.876	0.0148892
935.954	0.0150220
936.032	0.0149693
936.110	0.0149820
936.188	0.0150821
936.266	0.0150577
936.344	0.0148696
936.423	0.0150085
936.501	0.0150332
936.579	0.0150096
936.657	0.0150388
936.735	0.0149783
936.813	0.0150220
936.891	0.0151407
936.969	0.0150226
937.048	0.0151669
937.126	0.0152042
937.204	0.0151353
937.282	0.0151533
937.360	0.0153512
937.438	0.0153033
937.516	0.0152980
937.594	0.0153169
937.673	0.0152213
937.751	0.0152573
937.829	0.0152731
937.907	0.0153768
937.985	0.0153059
938.063	0.0152178
938.141	0.0152101
938.219	0.0153130
938.298	0.0151259
938.376	0.0151762
938.454	0.0150234
938.532	0.0150413
938.610	0.0150369
938.688	0.0149703
938.766	0.0149304
938.844	0.0149951
938.923	0.0148444
939.001	0.0148858
939.079	0.0148838
939.157	0.0149426
939.235	0.0149708
939.313	0.0149717
939.391	0.0148466
939.469	0.0149573
939.548	0.0148927
939.626	0.0148519
939.704	0.0148087
939.782	0.0147861
939.860	0.0149041
939.938	0.0149677
940.016	0.0148814
940.094	0.0149196
940.173	0.0148013
940.251	0.0150173
940.329	0.0149903
940.407	0.0150797
940.485	0.0150343
940.563	0.0149564
940.641	0.0150659
940.719	0.0152184
940.798	0.0150818
940.876	0.0150523
940.954	0.0151656
941.032	0.0152662
941.110	0.0152192
941.188	0.0151303
941.266	0.0150633
941.344	0.0151005
941.423	0.0153451
941.501	0.0151338
941.579	0.0151680
941.657	0.0152007
941.735	0.0150775
941.813	0.0152328
941.891	0.0150684
941.969	0.0152237
942.048	0.0150207
942.126	0.0152292
942.204	0.0151725
942.282	0.0151519
942.360	0.0151291
942.438	0.0152081
942.516	0.0151707
942.594	0.0151109
942.673	0.0150654
942.751	0.0151241
942.829	0.0151751
942.907	0.0150881
942.985	0.0151155
943.063	0.0152082
943.141	0.0151033
943.219	0.0151971
943.298	0.0151711
943.376	0.0150672
943.454	0.0150218
943.532	0.0150529
943.610	0.0150616
943.688	0.0150294
943.766	0.0150332
943.844	0.0150196
943.923	0.0148871
944.001	0.0148772
944.079	0.0150779
944.157	0.0149885
944.235	0.0149428
944.313	0.0149123
944.391	0.0151734
944.469	0.0150551
944.548	0.0148709
944.626	0.0149476
944.704	0.0148013
944.782	0.0151733
944.860	0.0150463
944.938	0.0151273
945.016	0.0150891
945.094	0.0151538
945.173	0.0150955
945.251	0.0151382
945.329	0.0151426
945.407	0.0151657
945.485	0.0151875
945.563	0.0150916
945.641	0.0151121
945.719	0.0151136
945.798	0.0151634
945.876	0.0152567
945.954	0.0152314
946.032	0.0152441
946.110	0.0151762
946.188	0.0151580
946.266	0.0151084
946.344	0.0152365
946.423	0.0152213
946.501	0.0153050
946.579	0.0151706
946.657	0.0150791
946.735	0.0151505
946.813	0.0150157
946.891	0.0150282
946.969	0.0151155
947.048	0.0151836
947.126	0.0150143
947.204	0.0149747
947.282	0.0150042
947.360	0.0148170
947.438	0.0149429
947.516	0.0150454
947.594	0.0148777
947.673	0.0149416
947.751	0.0149378
947.829	0.0150858
947.907	0.0150207
947.985	0.0149185
948.063	0.0149203
948.141	0.0149565
948.219	0.0150481
948.298	0.0148685
948.376	0.0150793
948.454	0.0150148
948.532	0.0148684
948.610	0.0148921
948.688	0.0149802
948.766	0.0151293
948.844	0.0150342
948.923	0.0149797
949.001	0.0151236
949.079	0.0151283
949.157	0.0151399
949.235	0.0150732
949.313	0.0150642
949.391	0.0151334
949.469	0.0151865
949.548	0.0152462
949.626	0.0151826
949.704	0.0152182
949.782	0.0150815
949.860	0.0152206
949.938	0.0151967
950.016	0.0153252
950.094	0.0151163
950.173	0.0150932
950.251	0.0150392
950.329	0.0151569
950.407	0.0150663
950.485	0.0152757
950.563	0.0151276
950.641	0.0151836
950.719	0.0151584
950.798	0.0152866
950.876	0.0151189
950.954	0.0150804
951.032	0.0151991
951.110	0.0151258
951.188	0.0151463
951.266	0.0151605
951.344	0.0151457
951.423	0.0150452
951.501	0.0150922
951.579	0.0150987
951.657	0.0151060
951.735	0.0150430
951.813	0.0151165
951.891	0.0149370
951.969	0.0149007
952.048	0.0151386
952.126	0.0150331
952.204	0.0149585
952.282	0.0150307
952.360	0.0150323
952.438	0.0149709
952.516	0.0150790
952.594	0.0150373
952.673	0.0150349
952.751	0.0150832
952.829	0.0151474
952.907	0.0150873
952.985	0.0151406
953.063	0.0149999
953.141	0.0151180
953.219	0.0150913
953.298	0.0151275
953.376	0.0152031
953.454	0.0151783
953.532	0.0151121
953.610	0.0151255
953.688	0.0151215
953.766	0.0150558
953.844	0.0152046
953.923	0.0150624
954.001	0.0151379
954.079	0.0152184
954.157	0.0151726
954.235	0.0151208
954.313	0.0149629
954.391	0.0151628
954.469	0.0149884
954.548	0.0149271
954.626	0.0150227
954.704	0.0149586
954.782	0.0149403
954.860	0.0150510
954.938	0.0150134
955.016	0.0149992
955.094	0.0150203
955.173	0.0150417
955.251	0.0149073
955.329	0.0150043
955.407	0.0150037
955.485	0.0150487
955.563	0.0150552
955.641	0.0150233
955.719	0.0150957
955.798	0.0150565
955.876	0.0150297
955.954	0.0150560
956.032	0.0150535
956.110	0.0150246
956.188	0.0150355
956.266	0.0149924
956.344	0.0150037
956.423	0.0150983
956.501	0.0150959
956.579	0.0150715
956.657	0.0149785
956.735	0.0151707
956.813	0.0150870
956.891	0.0151151
956.969	0.0151704
957.048	0.0150272
957.126	0.0151230
957.204	0.0150771
957.282	0.0150719
957.360	0.0152287
957.438	0.0149839
957.516	0.0150129
957.594	0.0149058
957.673	0.0150278
957.751	0.0149911
957.829	0.0150874
957.907	0.0149827
957.985	0.0149465
958.063	0.0150933
958.141	0.0151774
958.219	0.0150586
958.298	0.0151557
958.376	0.0150700
958.454	0.0150886
958.532	0.0151221
958.610	0.0150992
958.688	0.0152345
958.766	0.0152415
958.844	0.0151120
958.923	0.0152494
959.001	0.0150729
959.079	0.0151205
959.157	0.0151395
959.235	0.0152519
959.313	0.0151841
959.391	0.0151779
959.469	0.0153695
959.548	0.0151821
959.626	0.0150848
959.704	0.0151208
959.782	0.0150729
959.860	0.0150946
959.938	0.0151548
960.016	0.0152506
960.094	0.0150954
960.173	0.0151357
960.251	0.0150355
960.329	0.0148904
960.407	0.0150204
960.485	0.0148341
960.563	0.0148550
960.641	0.0148779
960.719	0.0149623
960.798	0.0150050
960.876	0.0150169
960.954	0.0150289
961.032	0.0151206
961.110	0.0152183
961.188	0.0151578
961.266	0.0151107
961.344	0.0152252
961.423	0.0151293
961.501	0.0149813
961.579	0.0149738
961.657	0.0149515
961.735	0.0147946
961.813	0.0147128
961.891	0.0146910
961.969	0.0147367
962.048	0.0148718
962.126	0.0149154
962.204	0.0150404
962.282	0.0150636
962.360	0.0151537
962.438	0.0152699
962.516	0.0152956
962.594	0.0152148
962.673	0.0154047
962.751	0.0153313
962.829	0.0153220
962.907	0.0151888
962.985	0.0149451
963.063	0.0150206
963.141	0.0150314
963.219	0.0151202
963.298	0.0150111
963.376	0.0150560
963.454	0.0149352
963.532	0.0149100
963.610	0.0150693
963.688	0.0150820
963.766	0.0151392
963.844	0.0152000
963.923	0.0151839
964.001	0.0153381
964.079	0.0153107
964.157	0.0153586
964.235	0.0151984
964.313	0.0153831
964.391	0.0152235
964.469	0.0151888
964.548	0.0152535
964.626	0.0150516
964.704	0.0150892
964.782	0.0150424
964.860	0.0150216
964.938	0.0150138
965.016	0.0148032
965.094	0.0147983
965.173	0.0148956
965.251	0.0150137
965.329	0.0148804
965.407	0.0150141
965.485	0.0150580
965.563	0.0151255
965.641	0.0152244
965.719	0.0153987
965.798	0.0153419
965.876	0.0153098
965.954	0.0153909
966.032	0.0152357
966.110	0.0152954
966.188	0.0152719
966.266	0.0152017
966.344	0.0150734
966.423	0.0149052
966.501	0.0148952
966.579	0.0148290
966.657	0.0147745
966.735	0.0145904
966.813	0.0146944
966.891	0.0145641
966.969	0.0147491
967.048	0.0148369
967.126	0.0148257
967.204	0.0147969
967.282	0.0149783
967.360	0.0150035
967.438	0.0150921
967.516	0.0151208
967.594	0.0151416
967.673	0.0152732
967.751	0.0152937
967.829	0.0152884
967.907	0.0152354
967.985	0.0152921
968.063	0.0151540
968.141	0.0150559
968.219	0.0151677
968.298	0.0151516
968.376	0.0150337
968.454	0.0149539
968.532	0.0150335
968.610	0.0149780
968.688	0.0147504
968.766	0.0149358
968.844	0.0150089
968.923	0.0148658
969.001	0.0148417
969.079	0.0148927
969.157	0.0147122
969.235	0.0148035
969.313	0.0147669
969.391	0.0147573
969.469	0.0147122
969.548	0.0147729
969.626	0.0148034
969.704	0.0148039
969.782	0.0148051
969.860	0.0147806
969.938	0.0149407
