05/14/2022	19:10:24	Ver.	4.1	UNKNOWN
Optical Delay	650.016352	Delta X		0.078125	Sweeps	1	Scan Rate	0/0
Coordinates	Axis 1	NaN	Axis 2	NaN	Axis 3	NaN	Axis 4	NaN	Axis 5	NaN	Axis 6	0.000000
TX Power	0.000000	RX Power	0.000000

650.016	0.0154482
650.094	0.0153331
650.173	0.0154438
650.251	0.0153951
650.329	0.0154997
650.407	0.0154878
650.485	0.0154178
650.563	0.0155050
650.641	0.0153756
650.719	0.0154805
650.798	0.0154106
650.876	0.0155116
650.954	0.0155408
651.032	0.0154594
651.110	0.0154388
651.188	0.0154872
651.266	0.0154467
651.344	0.0154095
651.423	0.0152143
651.501	0.0154905
651.579	0.0153650
651.657	0.0152541
651.735	0.0153516
651.813	0.0152880
651.891	0.0153674
651.969	0.0154288
652.048	0.0154240
652.126	0.0155198
652.204	0.0154944
652.282	0.0153416
652.360	0.0153944
652.438	0.0154449
652.516	0.0154603
652.594	0.0155767
652.673	0.0155503
652.751	0.0155547
652.829	0.0154295
652.907	0.0153965
652.985	0.0154194
653.063	0.0154609
653.141	0.0155003
653.219	0.0155037
653.298	0.0153854
653.376	0.0153332
653.454	0.0154996
653.532	0.0155650
653.610	0.0153004
653.688	0.0154080
653.766	0.0156382
653.844	0.0154330
653.923	0.0154100
654.001	0.0154091
654.079	0.0154131
654.157	0.0154129
654.235	0.0154365
654.313	0.0152344
654.391	0.0154695
654.469	0.0155050
654.548	0.0153431
654.626	0.0153136
654.704	0.0154556
654.782	0.0154395
654.860	0.0153918
654.938	0.0154865
655.016	0.0154422
655.094	0.0153741
655.173	0.0152690
655.251	0.0153381
655.329	0.0154958
655.407	0.0154559
655.485	0.0155475
655.563	0.0153775
655.641	0.0153672
655.719	0.0154765
655.798	0.0154185
655.876	0.0153195
655.954	0.0155285
656.032	0.0153752
656.110	0.0153270
656.188	0.0153972
656.266	0.0153754
656.344	0.0154523
656.423	0.0152969
656.501	0.0153753
656.579	0.0152823
656.657	0.0154776
656.735	0.0153468
656.813	0.0155749
656.891	0.0154509
656.969	0.0154150
657.048	0.0153518
657.126	0.0153313
657.204	0.0153217
657.282	0.0154568
657.360	0.0154202
657.438	0.0153965
657.516	0.0154907
657.594	0.0154288
657.673	0.0153386
657.751	0.0153728
657.829	0.0154638
657.907	0.0154261
657.985	0.0154210
658.063	0.0153248
658.141	0.0154535
658.219	0.0154949
658.298	0.0155064
658.376	0.0154958
658.454	0.0153590
658.532	0.0155068
658.610	0.0154115
658.688	0.0153139
658.766	0.0153609
658.844	0.0154620
658.923	0.0154569
659.001	0.0154446
659.079	0.0154711
659.157	0.0154430
659.235	0.0153759
659.313	0.0154033
659.391	0.0155121
659.469	0.0154972
659.548	0.0154118
659.626	0.0153889
659.704	0.0155073
659.782	0.0155674
659.860	0.0154396
659.938	0.0154318
660.016	0.0154369
660.094	0.0155264
660.173	0.0152798
660.251	0.0154019
660.329	0.0153735
660.407	0.0153648
660.485	0.0153380
660.563	0.0153500
660.641	0.0154194
660.719	0.0154832
660.798	0.0152989
660.876	0.0152977
660.954	0.0155535
661.032	0.0155393
661.110	0.0154642
661.188	0.0153824
661.266	0.0154510
661.344	0.0154763
661.423	0.0155281
661.501	0.0155083
661.579	0.0154118
661.657	0.0154746
661.735	0.0155286
661.813	0.0154678
661.891	0.0154369
661.969	0.0153712
662.048	0.0153354
662.126	0.0154999
662.204	0.0153285
662.282	0.0154673
662.360	0.0154115
662.438	0.0153402
662.516	0.0153519
662.594	0.0153357
662.673	0.0153667
662.751	0.0153759
662.829	0.0153848
662.907	0.0153844
662.985	0.0154635
663.063	0.0153374
663.141	0.0152544
663.219	0.0154891
663.298	0.0154671
663.376	0.0154730
663.454	0.0152969
663.532	0.0153380
663.610	0.0153403
663.688	0.0153477
663.766	0.0154055
663.844	0.0154334
663.923	0.0154061
664.001	0.0154437
664.079	0.0153897
664.157	0.0153241
664.235	0.0153697
664.313	0.0154597
664.391	0.0153243
664.469	0.0153951
664.548	0.0154252
664.626	0.0152705
664.704	0.0153876
664.782	0.0154539
664.860	0.0154595
664.938	0.0152719
665.016	0.0154821
665.094	0.0155779
665.173	0.0153358
665.251	0.0153229
665.329	0.0152846
665.407	0.0153026
665.485	0.0154346
665.563	0.0153410
665.641	0.0153402
665.719	0.0153059
665.798	0.0153877
665.876	0.0154395
665.954	0.0154153
666.032	0.0153217
666.110	0.0154244
666.188	0.0153095
666.266	0.0152902
666.344	0.0154218
666.423	0.0152772
666.501	0.0153551
666.579	0.0152974
666.657	0.0153758
666.735	0.0153493
666.813	0.0154350
666.891	0.0153379
666.969	0.0154352
667.048	0.0154861
667.126	0.0153600
667.204	0.0153614
667.282	0.0153624
667.360	0.0153733
667.438	0.0154377
667.516	0.0153696
667.594	0.0152870
667.673	0.0153579
667.751	0.0153683
667.829	0.0152597
667.907	0.0153688
667.985	0.0153499
668.063	0.0154555
668.141	0.0154048
668.219	0.0152808
668.298	0.0153078
668.376	0.0153246
668.454	0.0154345
668.532	0.0154025
668.610	0.0154774
668.688	0.0154653
668.766	0.0153806
668.844	0.0154153
668.923	0.0153216
669.001	0.0152864
669.079	0.0153039
669.157	0.0154873
669.235	0.0153134
669.313	0.0152513
669.391	0.0154078
669.469	0.0153678
669.548	0.0152959
669.626	0.0153906
669.704	0.0154423
669.782	0.0154112
669.860	0.0152573
669.938	0.0155264
670.016	0.0154182
670.094	0.0154718
670.173	0.0153707
670.251	0.0153998
670.329	0.0154013
670.407	0.0151817
670.485	0.0152911
670.563	0.0154617
670.641	0.0154413
670.719	0.0154668
670.798	0.0155426
670.876	0.0153963
670.954	0.0153716
671.032	0.0155192
671.110	0.0155391
671.188	0.0154224
671.266	0.0153875
671.344	0.0154305
671.423	0.0154532
671.501	0.0154462
671.579	0.0153409
671.657	0.0153369
671.735	0.0153406
671.813	0.0153115
671.891	0.0153765
671.969	0.0154760
672.048	0.0154523
672.126	0.0153816
672.204	0.0154058
672.282	0.0154562
672.360	0.0153274
672.438	0.0154704
672.516	0.0155354
672.594	0.0155442
672.673	0.0154278
672.751	0.0153955
672.829	0.0154543
672.907	0.0154779
672.985	0.0153235
673.063	0.0154889
673.141	0.0154301
673.219	0.0154179
673.298	0.0154852
673.376	0.0153129
673.454	0.0154685
673.532	0.0154303
673.610	0.0155611
673.688	0.0154748
673.766	0.0154994
673.844	0.0155571
673.923	0.0155869
674.001	0.0155425
674.079	0.0155206
674.157	0.0153937
674.235	0.0155023
674.313	0.0155389
674.391	0.0155660
674.469	0.0153927
674.548	0.0154231
674.626	0.0155502
674.704	0.0154232
674.782	0.0155502
674.860	0.0155547
674.938	0.0154900
675.016	0.0153861
675.094	0.0154885
675.173	0.0154943
675.251	0.0153970
675.329	0.0156033
675.407	0.0154978
675.485	0.0155261
675.563	0.0155325
675.641	0.0153290
675.719	0.0154152
675.798	0.0154323
675.876	0.0153990
675.954	0.0154053
676.032	0.0153852
676.110	0.0154916
676.188	0.0155190
676.266	0.0155402
676.344	0.0153974
676.423	0.0155632
676.501	0.0155203
676.579	0.0155322
676.657	0.0154961
676.735	0.0154076
676.813	0.0155524
676.891	0.0154658
676.969	0.0155274
677.048	0.0154507
677.126	0.0154419
677.204	0.0155185
677.282	0.0155525
677.360	0.0155062
677.438	0.0154611
677.516	0.0155094
677.594	0.0155857
677.673	0.0155733
677.751	0.0156546
677.829	0.0155010
677.907	0.0154893
677.985	0.0155308
678.063	0.0154807
678.141	0.0155295
678.219	0.0154810
678.298	0.0154610
678.376	0.0153977
678.454	0.0154420
678.532	0.0154612
678.610	0.0154436
678.688	0.0154483
678.766	0.0155090
678.844	0.0154993
678.923	0.0154966
679.001	0.0153753
679.079	0.0154605
679.157	0.0153615
679.235	0.0155405
679.313	0.0154656
679.391	0.0153919
679.469	0.0153688
679.548	0.0153090
679.626	0.0154708
679.704	0.0154576
679.782	0.0153297
679.860	0.0153220
679.938	0.0154179
680.016	0.0153439
680.094	0.0153446
680.173	0.0153371
680.251	0.0154671
680.329	0.0154130
680.407	0.0154166
680.485	0.0154478
680.563	0.0153580
680.641	0.0153088
680.719	0.0154697
680.798	0.0153214
680.876	0.0153381
680.954	0.0154267
681.032	0.0154608
681.110	0.0155540
681.188	0.0153692
681.266	0.0154214
681.344	0.0153437
681.423	0.0152892
681.501	0.0155286
681.579	0.0154662
681.657	0.0154936
681.735	0.0154473
681.813	0.0153629
681.891	0.0154820
681.969	0.0154485
682.048	0.0152798
682.126	0.0152804
682.204	0.0153125
682.282	0.0153216
682.360	0.0152726
682.438	0.0153181
682.516	0.0152379
682.594	0.0153782
682.673	0.0152622
682.751	0.0154559
682.829	0.0154692
682.907	0.0153815
682.985	0.0154637
683.063	0.0153629
683.141	0.0153795
683.219	0.0152809
683.298	0.0154275
683.376	0.0154305
683.454	0.0154698
683.532	0.0154214
683.610	0.0151963
683.688	0.0153069
683.766	0.0154393
683.844	0.0154597
683.923	0.0152815
684.001	0.0154444
684.079	0.0154762
684.157	0.0153609
684.235	0.0152792
684.313	0.0154140
684.391	0.0153926
684.469	0.0153651
684.548	0.0155009
684.626	0.0153239
684.704	0.0153057
684.782	0.0154269
684.860	0.0154607
684.938	0.0153352
685.016	0.0154005
685.094	0.0153382
685.173	0.0153428
685.251	0.0153975
685.329	0.0154207
685.407	0.0153671
685.485	0.0154900
685.563	0.0154749
685.641	0.0153149
685.719	0.0153782
685.798	0.0154108
685.876	0.0154050
685.954	0.0152984
686.032	0.0153709
686.110	0.0154671
686.188	0.0154348
686.266	0.0153658
686.344	0.0153954
686.423	0.0154748
686.501	0.0155005
686.579	0.0154459
686.657	0.0155104
686.735	0.0154497
686.813	0.0154915
686.891	0.0154614
686.969	0.0152968
687.048	0.0154230
687.126	0.0153754
687.204	0.0154256
687.282	0.0152960
687.360	0.0153571
687.438	0.0154076
687.516	0.0152857
687.594	0.0154077
687.673	0.0153908
687.751	0.0154088
687.829	0.0153519
687.907	0.0153223
687.985	0.0152583
688.063	0.0153244
688.141	0.0153780
688.219	0.0154961
688.298	0.0153275
688.376	0.0151672
688.454	0.0153297
688.532	0.0151888
688.610	0.0153156
688.688	0.0153690
688.766	0.0153862
688.844	0.0153309
688.923	0.0155103
689.001	0.0156643
689.079	0.0158819
689.157	0.0162171
689.235	0.0162867
689.313	0.0162095
689.391	0.0162383
689.469	0.0160960
689.548	0.0159241
689.626	0.0154487
689.704	0.0150175
689.782	0.0146250
689.860	0.0140424
689.938	0.0135779
690.016	0.0134042
690.094	0.0133247
690.173	0.0135707
690.251	0.0138990
690.329	0.0144088
690.407	0.0151959
690.485	0.0160654
690.563	0.0170029
690.641	0.0177908
690.719	0.0185230
690.798	0.0191107
690.876	0.0192651
690.954	0.0191780
691.032	0.0187559
691.110	0.0182842
691.188	0.0171886
691.266	0.0161063
691.344	0.0149987
691.423	0.0137140
691.501	0.0125571
691.579	0.0114772
691.657	0.0106726
691.735	0.0102566
691.813	0.00978516
691.891	0.00992737
691.969	0.0104323
692.048	0.0112717
692.126	0.0122495
692.204	0.0134251
692.282	0.0149942
692.360	0.0161598
692.438	0.0176826
692.516	0.0189045
692.594	0.0200580
692.673	0.0210570
692.751	0.0217692
692.829	0.0219811
692.907	0.0220637
692.985	0.0219698
693.063	0.0215221
693.141	0.0206946
693.219	0.0194415
693.298	0.0182663
693.376	0.0168572
693.454	0.0152897
693.532	0.0137836
693.610	0.0123066
693.688	0.0111815
693.766	0.00990326
693.844	0.00902718
693.923	0.00850945
694.001	0.00817169
694.079	0.00812447
694.157	0.00827019
694.235	0.00881851
694.313	0.00959122
694.391	0.0106575
694.469	0.0118488
694.548	0.0130064
694.626	0.0142919
694.704	0.0157580
694.782	0.0170567
694.860	0.0181644
694.938	0.0192884
695.016	0.0201266
695.094	0.0209883
695.173	0.0216208
695.251	0.0218311
695.329	0.0220351
695.407	0.0220812
695.485	0.0216679
695.563	0.0212324
695.641	0.0207611
695.719	0.0197945
695.798	0.0187936
695.876	0.0178977
695.954	0.0169501
696.032	0.0158015
696.110	0.0147240
696.188	0.0138593
696.266	0.0130908
696.344	0.0121165
696.423	0.0112988
696.501	0.0105265
696.579	0.0102312
696.657	0.00991158
696.735	0.00976700
696.813	0.00991386
696.891	0.00996017
696.969	0.0102454
697.048	0.0107497
697.126	0.0114266
697.204	0.0119738
697.282	0.0127454
697.360	0.0133411
697.438	0.0141361
697.516	0.0147178
697.594	0.0156807
697.673	0.0163298
697.751	0.0167409
697.829	0.0171829
697.907	0.0177276
697.985	0.0181701
698.063	0.0185728
698.141	0.0187709
698.219	0.0189314
698.298	0.0191277
698.376	0.0191682
698.454	0.0190712
698.532	0.0189933
698.610	0.0188816
698.688	0.0187743
698.766	0.0184880
698.844	0.0182317
698.923	0.0180170
699.001	0.0176209
699.079	0.0172739
699.157	0.0168265
699.235	0.0162142
699.313	0.0158492
699.391	0.0153056
699.469	0.0149043
699.548	0.0144048
699.626	0.0140089
699.704	0.0136829
699.782	0.0132528
699.860	0.0128701
699.938	0.0126165
700.016	0.0125253
700.094	0.0123839
700.173	0.0122447
700.251	0.0124606
700.329	0.0123129
700.407	0.0124522
700.485	0.0125056
700.563	0.0126636
700.641	0.0129279
700.719	0.0133456
700.798	0.0137630
700.876	0.0140318
700.954	0.0145464
701.032	0.0149715
701.110	0.0153754
701.188	0.0157126
701.266	0.0161354
701.344	0.0162805
701.423	0.0164822
701.501	0.0168417
701.579	0.0169472
701.657	0.0170467
701.735	0.0172323
701.813	0.0174069
701.891	0.0173796
701.969	0.0173699
702.048	0.0173987
702.126	0.0173989
702.204	0.0175332
702.282	0.0173290
702.360	0.0173390
702.438	0.0172968
702.516	0.0173328
702.594	0.0174035
702.673	0.0172940
702.751	0.0173501
702.829	0.0169926
702.907	0.0170036
702.985	0.0168309
703.063	0.0165920
703.141	0.0164427
703.219	0.0160298
703.298	0.0159481
703.376	0.0156351
703.454	0.0153404
703.532	0.0151936
703.610	0.0149407
703.688	0.0146180
703.766	0.0145181
703.844	0.0142316
703.923	0.0139632
704.001	0.0140242
704.079	0.0135885
704.157	0.0133588
704.235	0.0131754
704.313	0.0130553
704.391	0.0130365
704.469	0.0130242
704.548	0.0128329
704.626	0.0126183
704.704	0.0127111
704.782	0.0127230
704.860	0.0129607
704.938	0.0131239
705.016	0.0133942
705.094	0.0137592
705.173	0.0139342
705.251	0.0143057
705.329	0.0144927
705.407	0.0149354
705.485	0.0154098
705.563	0.0158360
705.641	0.0161925
705.719	0.0165180
705.798	0.0168933
705.876	0.0173134
705.954	0.0174274
706.032	0.0177208
706.110	0.0178265
706.188	0.0178264
706.266	0.0179838
706.344	0.0179394
706.423	0.0177697
706.501	0.0175730
706.579	0.0172779
706.657	0.0171260
706.735	0.0168237
706.813	0.0165573
706.891	0.0163264
706.969	0.0160827
707.048	0.0157869
707.126	0.0157575
707.204	0.0158380
707.282	0.0156005
707.360	0.0154078
707.438	0.0154436
707.516	0.0155479
707.594	0.0153558
707.673	0.0153233
707.751	0.0154211
707.829	0.0153056
707.907	0.0152460
707.985	0.0153771
708.063	0.0153185
708.141	0.0153606
708.219	0.0151805
708.298	0.0150184
708.376	0.0150819
708.454	0.0147670
708.532	0.0146227
708.610	0.0144946
708.688	0.0144122
708.766	0.0143314
708.844	0.0140705
708.923	0.0139922
709.001	0.0137304
709.079	0.0136492
709.157	0.0134946
709.235	0.0135281
709.313	0.0135918
709.391	0.0134816
709.469	0.0135199
709.548	0.0137030
709.626	0.0139370
709.704	0.0139499
709.782	0.0142272
709.860	0.0144962
709.938	0.0145741
710.016	0.0150662
710.094	0.0152431
710.173	0.0154429
710.251	0.0157056
710.329	0.0159737
710.407	0.0162753
710.485	0.0163902
710.563	0.0165497
710.641	0.0166051
710.719	0.0167110
710.798	0.0168971
710.876	0.0170499
710.954	0.0169613
711.032	0.0170242
711.110	0.0172134
711.188	0.0172440
711.266	0.0171717
711.344	0.0172346
711.423	0.0174058
711.501	0.0173869
711.579	0.0174049
711.657	0.0171588
711.735	0.0170387
711.813	0.0169361
711.891	0.0169181
711.969	0.0165199
712.048	0.0163728
712.126	0.0161443
712.204	0.0159866
712.282	0.0156914
712.360	0.0155154
712.438	0.0151590
712.516	0.0150561
712.594	0.0147789
712.673	0.0147632
712.751	0.0145890
712.829	0.0145011
712.907	0.0143752
712.985	0.0144865
713.063	0.0143643
713.141	0.0142892
713.219	0.0142827
713.298	0.0142431
713.376	0.0141033
713.454	0.0141454
713.532	0.0141042
713.610	0.0140993
713.688	0.0139574
713.766	0.0139384
713.844	0.0138177
713.923	0.0138585
714.001	0.0139515
714.079	0.0138873
714.157	0.0138978
714.235	0.0140076
714.313	0.0140398
714.391	0.0141650
714.469	0.0142374
714.548	0.0142590
714.626	0.0145206
714.704	0.0147010
714.782	0.0151112
714.860	0.0154816
714.938	0.0157058
715.016	0.0159560
715.094	0.0164197
715.173	0.0165397
715.251	0.0167799
715.329	0.0168287
715.407	0.0172369
715.485	0.0173656
715.563	0.0173505
715.641	0.0173605
715.719	0.0173256
715.798	0.0173126
715.876	0.0171593
715.954	0.0171841
716.032	0.0168517
716.110	0.0167437
716.188	0.0165327
716.266	0.0165837
716.344	0.0163880
716.423	0.0162284
716.501	0.0160791
716.579	0.0161127
716.657	0.0158859
716.735	0.0157896
716.813	0.0157423
716.891	0.0155012
716.969	0.0153888
717.048	0.0153098
717.126	0.0150869
717.204	0.0149310
717.282	0.0146143
717.360	0.0144514
717.438	0.0143820
717.516	0.0140952
717.594	0.0141985
717.673	0.0141627
717.751	0.0141036
717.829	0.0140363
717.907	0.0139790
717.985	0.0142171
718.063	0.0143616
718.141	0.0143312
718.219	0.0144208
718.298	0.0145670
718.376	0.0147038
718.454	0.0149822
718.532	0.0150365
718.610	0.0151696
718.688	0.0151698
718.766	0.0151488
718.844	0.0153030
718.923	0.0153805
719.001	0.0154528
719.079	0.0151553
719.157	0.0151414
719.235	0.0153310
719.313	0.0153200
719.391	0.0152657
719.469	0.0153124
719.548	0.0153228
719.626	0.0152759
719.704	0.0153402
719.782	0.0152718
719.860	0.0152905
719.938	0.0153929
720.016	0.0153634
720.094	0.0153070
720.173	0.0156355
720.251	0.0156332
720.329	0.0157866
720.407	0.0158037
720.485	0.0158729
720.563	0.0160008
720.641	0.0159789
720.719	0.0159062
720.798	0.0159326
720.876	0.0160264
720.954	0.0160454
721.032	0.0159944
721.110	0.0158640
721.188	0.0158245
721.266	0.0159245
721.344	0.0156947
721.423	0.0156696
721.501	0.0157941
721.579	0.0157823
721.657	0.0156106
721.735	0.0155224
721.813	0.0153992
721.891	0.0155392
721.969	0.0157894
722.048	0.0157450
722.126	0.0157093
722.204	0.0157008
722.282	0.0156653
722.360	0.0156191
722.438	0.0155553
722.516	0.0155908
722.594	0.0156228
722.673	0.0153783
722.751	0.0153811
722.829	0.0152475
722.907	0.0152092
722.985	0.0151440
723.063	0.0150636
723.141	0.0149561
723.219	0.0148915
723.298	0.0149424
723.376	0.0148576
723.454	0.0149181
723.532	0.0146371
723.610	0.0146024
723.688	0.0146314
723.766	0.0148089
723.844	0.0148914
723.923	0.0147845
724.001	0.0147585
724.079	0.0149541
724.157	0.0150832
724.235	0.0149376
724.313	0.0151175
724.391	0.0151732
724.469	0.0151346
724.548	0.0151416
724.626	0.0152944
724.704	0.0150954
724.782	0.0152263
724.860	0.0151785
724.938	0.0152538
725.016	0.0153937
725.094	0.0153248
725.173	0.0154036
725.251	0.0154395
725.329	0.0155034
725.407	0.0155766
725.485	0.0156675
725.563	0.0160489
725.641	0.0159525
725.719	0.0159669
725.798	0.0160466
725.876	0.0161273
725.954	0.0161928
726.032	0.0162022
726.110	0.0162231
726.188	0.0160376
726.266	0.0160543
726.344	0.0159734
726.423	0.0158350
726.501	0.0159132
726.579	0.0156065
726.657	0.0153535
726.735	0.0153580
726.813	0.0153060
726.891	0.0152888
726.969	0.0150801
727.048	0.0151627
727.126	0.0151715
727.204	0.0150661
727.282	0.0153084
727.360	0.0154227
727.438	0.0155547
727.516	0.0156431
727.594	0.0156777
727.673	0.0157099
727.751	0.0157846
727.829	0.0156918
727.907	0.0157366
727.985	0.0156610
728.063	0.0158588
728.141	0.0157343
728.219	0.0154086
728.298	0.0154939
728.376	0.0154274
728.454	0.0151865
728.532	0.0149585
728.610	0.0151428
728.688	0.0151350
728.766	0.0151415
728.844	0.0149339
728.923	0.0149419
729.001	0.0150704
729.079	0.0150342
729.157	0.0150307
729.235	0.0150631
729.313	0.0149898
729.391	0.0151015
729.469	0.0150594
729.548	0.0150475
729.626	0.0151627
729.704	0.0153579
729.782	0.0153654
729.860	0.0153645
729.938	0.0153876
730.016	0.0152526
730.094	0.0153427
730.173	0.0153854
730.251	0.0152912
730.329	0.0154470
730.407	0.0152121
730.485	0.0152479
730.563	0.0152074
730.641	0.0153685
730.719	0.0153969
730.798	0.0152962
730.876	0.0152609
730.954	0.0155365
731.032	0.0154906
731.110	0.0156599
731.188	0.0155962
731.266	0.0154715
731.344	0.0156516
731.423	0.0156575
731.501	0.0156089
731.579	0.0156358
731.657	0.0154362
731.735	0.0154634
731.813	0.0155239
731.891	0.0152873
731.969	0.0151379
732.048	0.0151855
732.126	0.0151248
732.204	0.0152978
732.282	0.0150932
732.360	0.0152023
732.438	0.0154284
732.516	0.0153087
732.594	0.0153403
732.673	0.0156724
732.751	0.0155959
732.829	0.0156715
732.907	0.0157637
732.985	0.0158904
733.063	0.0158176
733.141	0.0158545
733.219	0.0159896
733.298	0.0159932
733.376	0.0161346
733.454	0.0160583
733.532	0.0159601
733.610	0.0159530
733.688	0.0159953
733.766	0.0160260
733.844	0.0157624
733.923	0.0157803
734.001	0.0157394
734.079	0.0153807
734.157	0.0153915
734.235	0.0153857
734.313	0.0153197
734.391	0.0151842
734.469	0.0151232
734.548	0.0151564
734.626	0.0152398
734.704	0.0150200
734.782	0.0149886
734.860	0.0150144
734.938	0.0148978
735.016	0.0150782
735.094	0.0150132
735.173	0.0149890
735.251	0.0149382
735.329	0.0148675
735.407	0.0149361
735.485	0.0150171
735.563	0.0149097
735.641	0.0149565
735.719	0.0150115
735.798	0.0151021
735.876	0.0151424
735.954	0.0152512
736.032	0.0154247
736.110	0.0155013
736.188	0.0154180
736.266	0.0156197
736.344	0.0158015
736.423	0.0159001
736.501	0.0157890
736.579	0.0158936
736.657	0.0158466
736.735	0.0158232
736.813	0.0159173
736.891	0.0158846
736.969	0.0160028
737.048	0.0158191
737.126	0.0157376
737.204	0.0157822
737.282	0.0158076
737.360	0.0156149
737.438	0.0156971
737.516	0.0156696
737.594	0.0156201
737.673	0.0154737
737.751	0.0155450
737.829	0.0154119
737.907	0.0154727
737.985	0.0155444
738.063	0.0153940
738.141	0.0155332
738.219	0.0154379
738.298	0.0155042
738.376	0.0155293
738.454	0.0155642
738.532	0.0156133
738.610	0.0154366
738.688	0.0155679
738.766	0.0153019
738.844	0.0154002
738.923	0.0154484
739.001	0.0155506
739.079	0.0154088
739.157	0.0153735
739.235	0.0153012
739.313	0.0151889
739.391	0.0151948
739.469	0.0152503
739.548	0.0151972
739.626	0.0152308
739.704	0.0151490
739.782	0.0151665
739.860	0.0152602
739.938	0.0152965
740.016	0.0153519
740.094	0.0152981
740.173	0.0152481
740.251	0.0154568
740.329	0.0153568
740.407	0.0154101
740.485	0.0154393
740.563	0.0154035
740.641	0.0154716
740.719	0.0154452
740.798	0.0154858
740.876	0.0153670
740.954	0.0154886
741.032	0.0154385
741.110	0.0153226
741.188	0.0154621
741.266	0.0153191
741.344	0.0154947
741.423	0.0155522
741.501	0.0154471
741.579	0.0156754
741.657	0.0155209
741.735	0.0154985
741.813	0.0154964
741.891	0.0155715
741.969	0.0157246
742.048	0.0156944
742.126	0.0156300
742.204	0.0154808
742.282	0.0154919
742.360	0.0156432
742.438	0.0155341
742.516	0.0154734
742.594	0.0153532
742.673	0.0153907
742.751	0.0154207
742.829	0.0153434
742.907	0.0152888
742.985	0.0153322
743.063	0.0152735
743.141	0.0153290
743.219	0.0153860
743.298	0.0153341
743.376	0.0154832
743.454	0.0154102
743.532	0.0154372
743.610	0.0156061
743.688	0.0156583
743.766	0.0156251
743.844	0.0155404
743.923	0.0155304
744.001	0.0155277
744.079	0.0155765
744.157	0.0155707
744.235	0.0155337
744.313	0.0154156
744.391	0.0155003
744.469	0.0154245
744.548	0.0152311
744.626	0.0153008
744.704	0.0153952
744.782	0.0151260
744.860	0.0152173
744.938	0.0149564
745.016	0.0150076
745.094	0.0150211
745.173	0.0147845
745.251	0.0149670
745.329	0.0149949
745.407	0.0148348
745.485	0.0150221
745.563	0.0150626
745.641	0.0150374
745.719	0.0149886
745.798	0.0148682
745.876	0.0149956
745.954	0.0150296
746.032	0.0150756
746.110	0.0151855
746.188	0.0151897
746.266	0.0153287
746.344	0.0152759
746.423	0.0152519
746.501	0.0153426
746.579	0.0153022
746.657	0.0155105
746.735	0.0156170
746.813	0.0155804
746.891	0.0157791
746.969	0.0158764
747.048	0.0158724
747.126	0.0158958
747.204	0.0160116
747.282	0.0161116
747.360	0.0160419
747.438	0.0160664
747.516	0.0160135
747.594	0.0161303
747.673	0.0159377
747.751	0.0158585
747.829	0.0158286
747.907	0.0157664
747.985	0.0156927
748.063	0.0154541
748.141	0.0153788
748.219	0.0154868
748.298	0.0153063
748.376	0.0152161
748.454	0.0152234
748.532	0.0153108
748.610	0.0151933
748.688	0.0153339
748.766	0.0154243
748.844	0.0153994
748.923	0.0153494
749.001	0.0154425
749.079	0.0154266
749.157	0.0156444
749.235	0.0155999
749.313	0.0154010
749.391	0.0155185
749.469	0.0154954
749.548	0.0155207
749.626	0.0154221
749.704	0.0155068
749.782	0.0154695
749.860	0.0152336
749.938	0.0151488
750.016	0.0150408
750.094	0.0148870
750.173	0.0148383
750.251	0.0149032
750.329	0.0147598
750.407	0.0148259
750.485	0.0148312
750.563	0.0145710
750.641	0.0147530
750.719	0.0147424
750.798	0.0148185
750.876	0.0148903
750.954	0.0149335
751.032	0.0150681
751.110	0.0151880
751.188	0.0151195
751.266	0.0152714
751.344	0.0152136
751.423	0.0153181
751.501	0.0153362
751.579	0.0154157
751.657	0.0153160
751.735	0.0155389
751.813	0.0155514
751.891	0.0154170
751.969	0.0155803
752.048	0.0155481
752.126	0.0156137
752.204	0.0156110
752.282	0.0157427
752.360	0.0158419
752.438	0.0157895
752.516	0.0159037
752.594	0.0159550
752.673	0.0157814
752.751	0.0159589
752.829	0.0159880
752.907	0.0160706
752.985	0.0160442
753.063	0.0161645
753.141	0.0159400
753.219	0.0159785
753.298	0.0161061
753.376	0.0159057
753.454	0.0160397
753.532	0.0159106
753.610	0.0159489
753.688	0.0157497
753.766	0.0157648
753.844	0.0156086
753.923	0.0155209
754.001	0.0156048
754.079	0.0155766
754.157	0.0154710
754.235	0.0153965
754.313	0.0153527
754.391	0.0153893
754.469	0.0153115
754.548	0.0152323
754.626	0.0152930
754.704	0.0152145
754.782	0.0153613
754.860	0.0152369
754.938	0.0151614
755.016	0.0150626
755.094	0.0152213
755.173	0.0153084
755.251	0.0150256
755.329	0.0150919
755.407	0.0151869
755.485	0.0150889
755.563	0.0150903
755.641	0.0149264
755.719	0.0148021
755.798	0.0149956
755.876	0.0148695
755.954	0.0149770
756.032	0.0149236
756.110	0.0149204
756.188	0.0150234
756.266	0.0150199
756.344	0.0151909
756.423	0.0150095
756.501	0.0151440
756.579	0.0152025
756.657	0.0152467
756.735	0.0155022
756.813	0.0153684
756.891	0.0153990
756.969	0.0154716
757.048	0.0154104
757.126	0.0155177
757.204	0.0154464
757.282	0.0155515
757.360	0.0155801
757.438	0.0155236
757.516	0.0157104
757.594	0.0156326
757.673	0.0156610
757.751	0.0157112
757.829	0.0158443
757.907	0.0158352
757.985	0.0157611
758.063	0.0156630
758.141	0.0158549
758.219	0.0157836
758.298	0.0157529
758.376	0.0156406
758.454	0.0156699
758.532	0.0155414
758.610	0.0155853
758.688	0.0155927
758.766	0.0156152
758.844	0.0155009
758.923	0.0155965
759.001	0.0155954
759.079	0.0155852
759.157	0.0154913
759.235	0.0154022
759.313	0.0154019
759.391	0.0155242
759.469	0.0155893
759.548	0.0156245
759.626	0.0156633
759.704	0.0156571
759.782	0.0155178
759.860	0.0156338
759.938	0.0155814
760.016	0.0155486
760.094	0.0155624
760.173	0.0155696
760.251	0.0156116
760.329	0.0154600
760.407	0.0155457
760.485	0.0155185
760.563	0.0155026
760.641	0.0155300
760.719	0.0155391
760.798	0.0154057
760.876	0.0153540
760.954	0.0152425
761.032	0.0151319
761.110	0.0153564
761.188	0.0153656
761.266	0.0153137
761.344	0.0152036
761.423	0.0152408
761.501	0.0153197
761.579	0.0153185
761.657	0.0151437
761.735	0.0151650
761.813	0.0150644
761.891	0.0151861
761.969	0.0151521
762.048	0.0152248
762.126	0.0152000
762.204	0.0151482
762.282	0.0151937
762.360	0.0150829
762.438	0.0151450
762.516	0.0152548
762.594	0.0152110
762.673	0.0153872
762.751	0.0154559
762.829	0.0154038
762.907	0.0155243
762.985	0.0156528
763.063	0.0157013
763.141	0.0157011
763.219	0.0157520
763.298	0.0158044
763.376	0.0158313
763.454	0.0157905
763.532	0.0158529
763.610	0.0159406
763.688	0.0158652
763.766	0.0159070
763.844	0.0158977
763.923	0.0156546
764.001	0.0156541
764.079	0.0156921
764.157	0.0157080
764.235	0.0157216
764.313	0.0155361
764.391	0.0152957
764.469	0.0154700
764.548	0.0153625
764.626	0.0153049
764.704	0.0151828
764.782	0.0152853
764.860	0.0154012
764.938	0.0153024
765.016	0.0151863
765.094	0.0152906
765.173	0.0151916
765.251	0.0151884
765.329	0.0152820
765.407	0.0152119
765.485	0.0152520
765.563	0.0152308
765.641	0.0153600
765.719	0.0153247
765.798	0.0152750
765.876	0.0153088
765.954	0.0152505
766.032	0.0151958
766.110	0.0153496
766.188	0.0152224
766.266	0.0151429
766.344	0.0152527
766.423	0.0152214
766.501	0.0153031
766.579	0.0152949
766.657	0.0152411
766.735	0.0152909
766.813	0.0152612
766.891	0.0153210
766.969	0.0152747
767.048	0.0153722
767.126	0.0154363
767.204	0.0155062
767.282	0.0156422
767.360	0.0156847
767.438	0.0157107
767.516	0.0156071
767.594	0.0156879
767.673	0.0158065
767.751	0.0159194
767.829	0.0158424
767.907	0.0159852
767.985	0.0157893
768.063	0.0157718
768.141	0.0158528
768.219	0.0159195
768.298	0.0158509
768.376	0.0159182
768.454	0.0158524
768.532	0.0159046
768.610	0.0157679
768.688	0.0156841
768.766	0.0157137
768.844	0.0156287
768.923	0.0154555
769.001	0.0154111
769.079	0.0154955
769.157	0.0152831
769.235	0.0151218
769.313	0.0152037
769.391	0.0150617
769.469	0.0150121
769.548	0.0149365
769.626	0.0150666
769.704	0.0149545
769.782	0.0148389
769.860	0.0148934
769.938	0.0148691
770.016	0.0150922
770.094	0.0149611
770.173	0.0148895
770.251	0.0149935
770.329	0.0150951
770.407	0.0150260
770.485	0.0148120
770.563	0.0150544
770.641	0.0150166
770.719	0.0150415
770.798	0.0149625
770.876	0.0149649
770.954	0.0150510
771.032	0.0151791
771.110	0.0151579
771.188	0.0151365
771.266	0.0152573
771.344	0.0154869
771.423	0.0153721
771.501	0.0153896
771.579	0.0153207
771.657	0.0155643
771.735	0.0156246
771.813	0.0156050
771.891	0.0156057
771.969	0.0157471
772.048	0.0157886
772.126	0.0160162
772.204	0.0158785
772.282	0.0161625
772.360	0.0160264
772.438	0.0159916
772.516	0.0161221
772.594	0.0160789
772.673	0.0159550
772.751	0.0161227
772.829	0.0160712
772.907	0.0161527
772.985	0.0160808
773.063	0.0159543
773.141	0.0157761
773.219	0.0157671
773.298	0.0157201
773.376	0.0156274
773.454	0.0156303
773.532	0.0156176
773.610	0.0153577
773.688	0.0153672
773.766	0.0153318
773.844	0.0152997
773.923	0.0152589
774.001	0.0151585
774.079	0.0152378
774.157	0.0153453
774.235	0.0152762
774.313	0.0152035
774.391	0.0151714
774.469	0.0152547
774.548	0.0152061
774.626	0.0152145
774.704	0.0152274
774.782	0.0154195
774.860	0.0152734
774.938	0.0152835
775.016	0.0151790
775.094	0.0153897
775.173	0.0153798
775.251	0.0152476
775.329	0.0153832
775.407	0.0152583
775.485	0.0152428
775.563	0.0152367
775.641	0.0152335
775.719	0.0151581
775.798	0.0152509
775.876	0.0150864
775.954	0.0150556
776.032	0.0150887
776.110	0.0152189
776.188	0.0151669
776.266	0.0151066
776.344	0.0152830
776.423	0.0152851
776.501	0.0152448
776.579	0.0151896
776.657	0.0152026
776.735	0.0153158
776.813	0.0152331
776.891	0.0152271
776.969	0.0152666
777.048	0.0153957
777.126	0.0151834
777.204	0.0153141
777.282	0.0153481
777.360	0.0154306
777.438	0.0154546
777.516	0.0154327
777.594	0.0156503
777.673	0.0156148
777.751	0.0155388
777.829	0.0155800
777.907	0.0155315
777.985	0.0156651
778.063	0.0156247
778.141	0.0156069
778.219	0.0155729
778.298	0.0156422
778.376	0.0156061
778.454	0.0156666
778.532	0.0155915
778.610	0.0156583
778.688	0.0155061
778.766	0.0155680
778.844	0.0155722
778.923	0.0155412
779.001	0.0154758
779.079	0.0155203
779.157	0.0156835
779.235	0.0157224
779.313	0.0153659
779.391	0.0154959
779.469	0.0156664
779.548	0.0156216
779.626	0.0154963
779.704	0.0154414
779.782	0.0155474
779.860	0.0154670
779.938	0.0153025
780.016	0.0152682
780.094	0.0153055
780.173	0.0154350
780.251	0.0154331
780.329	0.0154685
780.407	0.0152509
780.485	0.0152191
780.563	0.0153290
780.641	0.0152934
780.719	0.0152450
780.798	0.0153893
780.876	0.0152856
780.954	0.0154781
781.032	0.0152551
781.110	0.0155257
781.188	0.0153697
781.266	0.0152582
781.344	0.0154114
781.423	0.0154419
781.501	0.0152447
781.579	0.0153649
781.657	0.0153755
781.735	0.0154128
781.813	0.0152390
781.891	0.0154131
781.969	0.0154403
782.048	0.0151847
782.126	0.0153889
782.204	0.0154197
782.282	0.0151881
782.360	0.0151865
782.438	0.0151069
782.516	0.0151210
782.594	0.0151971
782.673	0.0150446
782.751	0.0152679
782.829	0.0151671
782.907	0.0152536
782.985	0.0150752
783.063	0.0151556
783.141	0.0152172
783.219	0.0150158
783.298	0.0152221
783.376	0.0152558
783.454	0.0152140
783.532	0.0152103
783.610	0.0153777
783.688	0.0152866
783.766	0.0154096
783.844	0.0154915
783.923	0.0153651
784.001	0.0154712
784.079	0.0155672
784.157	0.0154313
784.235	0.0155106
784.313	0.0155573
784.391	0.0154395
784.469	0.0154238
784.548	0.0153692
784.626	0.0154530
784.704	0.0154073
784.782	0.0155836
784.860	0.0154681
784.938	0.0154168
785.016	0.0155087
785.094	0.0153462
785.173	0.0155251
785.251	0.0156593
785.329	0.0157097
785.407	0.0156763
785.485	0.0156128
785.563	0.0157028
785.641	0.0158623
785.719	0.0157587
785.798	0.0156783
785.876	0.0158132
785.954	0.0157483
786.032	0.0157733
786.110	0.0156900
786.188	0.0155522
786.266	0.0155875
786.344	0.0155414
786.423	0.0155693
786.501	0.0156117
786.579	0.0155342
786.657	0.0153580
786.735	0.0153664
786.813	0.0153692
786.891	0.0153618
786.969	0.0152892
787.048	0.0154061
787.126	0.0154637
787.204	0.0152644
787.282	0.0151727
787.360	0.0153170
787.438	0.0153660
787.516	0.0152539
787.594	0.0152831
787.673	0.0151395
787.751	0.0149705
787.829	0.0151131
787.907	0.0150752
787.985	0.0150880
788.063	0.0151250
788.141	0.0151529
788.219	0.0152399
788.298	0.0152095
788.376	0.0151581
788.454	0.0152186
788.532	0.0151511
788.610	0.0152686
788.688	0.0153644
788.766	0.0152483
788.844	0.0153478
788.923	0.0153183
789.001	0.0153636
789.079	0.0155642
789.157	0.0155707
789.235	0.0155358
789.313	0.0156441
789.391	0.0156725
789.469	0.0156367
789.548	0.0157125
789.626	0.0157738
789.704	0.0155701
789.782	0.0155537
789.860	0.0153483
789.938	0.0153260
790.016	0.0152489
790.094	0.0153622
790.173	0.0151086
790.251	0.0150544
790.329	0.0148419
790.407	0.0149068
790.485	0.0149423
790.563	0.0147810
790.641	0.0146666
790.719	0.0147639
790.798	0.0147053
790.876	0.0149056
790.954	0.0149052
791.032	0.0150185
791.110	0.0151698
791.188	0.0151762
791.266	0.0152739
791.344	0.0154971
791.423	0.0156673
791.501	0.0157354
791.579	0.0158900
791.657	0.0160268
791.735	0.0159834
791.813	0.0161723
791.891	0.0162437
791.969	0.0163119
792.048	0.0161814
792.126	0.0161723
792.204	0.0161452
792.282	0.0161312
792.360	0.0159933
792.438	0.0157793
792.516	0.0155888
792.594	0.0155751
792.673	0.0154353
792.751	0.0153416
792.829	0.0150186
792.907	0.0149896
792.985	0.0148696
793.063	0.0148631
793.141	0.0146818
793.219	0.0146568
793.298	0.0146724
793.376	0.0145681
793.454	0.0146240
793.532	0.0147085
793.610	0.0148091
793.688	0.0148764
793.766	0.0150454
793.844	0.0152228
793.923	0.0153596
794.001	0.0153048
794.079	0.0154425
794.157	0.0155587
794.235	0.0156964
794.313	0.0159577
794.391	0.0157816
794.469	0.0156783
794.548	0.0158447
794.626	0.0159387
794.704	0.0157697
794.782	0.0157467
794.860	0.0158571
794.938	0.0156841
795.016	0.0156742
795.094	0.0158308
795.173	0.0156488
795.251	0.0157938
795.329	0.0157178
795.407	0.0155347
795.485	0.0154707
795.563	0.0155148
795.641	0.0155727
795.719	0.0154401
795.798	0.0153079
795.876	0.0152557
795.954	0.0154295
796.032	0.0151528
796.110	0.0151685
796.188	0.0151942
796.266	0.0151137
796.344	0.0151394
796.423	0.0148489
796.501	0.0148932
796.579	0.0147934
796.657	0.0147834
796.735	0.0146564
796.813	0.0145570
796.891	0.0147569
796.969	0.0147177
797.048	0.0147266
797.126	0.0147677
797.204	0.0148186
797.282	0.0149342
797.360	0.0149747
797.438	0.0150533
797.516	0.0149392
797.594	0.0153269
797.673	0.0155414
797.751	0.0156046
797.829	0.0155701
797.907	0.0156233
797.985	0.0155930
798.063	0.0158170
798.141	0.0160180
798.219	0.0159570
798.298	0.0160417
798.376	0.0161615
798.454	0.0163018
798.532	0.0162217
798.610	0.0161543
798.688	0.0161323
798.766	0.0161361
798.844	0.0161731
798.923	0.0160459
799.001	0.0159492
799.079	0.0158900
799.157	0.0158583
799.235	0.0156912
799.313	0.0157780
799.391	0.0157884
799.469	0.0155556
799.548	0.0155672
799.626	0.0155499
799.704	0.0153527
799.782	0.0153874
799.860	0.0154039
799.938	0.0154591
800.016	0.0153952
800.094	0.0153147
800.173	0.0151740
800.251	0.0151678
800.329	0.0150283
800.407	0.0150908
800.485	0.0151014
800.563	0.0150277
800.641	0.0148814
800.719	0.0150271
800.798	0.0149158
800.876	0.0148723
800.954	0.0149027
801.032	0.0147897
801.110	0.0148805
801.188	0.0150008
801.266	0.0149432
801.344	0.0149000
801.423	0.0150354
801.501	0.0149020
801.579	0.0149255
801.657	0.0150994
801.735	0.0152622
801.813	0.0152170
801.891	0.0150935
801.969	0.0152692
802.048	0.0152718
802.126	0.0152815
802.204	0.0153919
802.282	0.0153520
802.360	0.0153587
802.438	0.0154667
802.516	0.0153639
802.594	0.0155261
802.673	0.0153574
802.751	0.0154503
802.829	0.0155045
802.907	0.0153857
802.985	0.0154196
803.063	0.0154390
803.141	0.0155244
803.219	0.0154594
803.298	0.0153732
803.376	0.0153809
803.454	0.0155405
803.532	0.0154605
803.610	0.0154030
803.688	0.0156880
803.766	0.0156041
803.844	0.0155896
803.923	0.0156551
804.001	0.0156642
804.079	0.0157908
804.157	0.0156924
804.235	0.0156306
804.313	0.0157373
804.391	0.0158170
804.469	0.0156811
804.548	0.0157895
804.626	0.0158160
804.704	0.0157550
804.782	0.0157110
804.860	0.0157667
804.938	0.0155917
805.016	0.0155685
805.094	0.0155519
805.173	0.0155514
805.251	0.0154629
805.329	0.0153706
805.407	0.0153539
805.485	0.0152528
805.563	0.0151680
805.641	0.0150378
805.719	0.0151726
805.798	0.0150480
805.876	0.0151226
805.954	0.0151638
806.032	0.0150238
806.110	0.0151080
806.188	0.0150510
806.266	0.0150315
806.344	0.0151097
806.423	0.0152075
806.501	0.0152673
806.579	0.0153397
806.657	0.0153144
806.735	0.0153403
806.813	0.0153262
806.891	0.0152840
806.969	0.0153279
807.048	0.0153347
807.126	0.0155276
807.204	0.0154819
807.282	0.0155224
807.360	0.0155138
807.438	0.0155436
807.516	0.0154540
807.594	0.0155855
807.673	0.0156067
807.751	0.0155603
807.829	0.0155415
807.907	0.0156924
807.985	0.0158032
808.063	0.0155341
808.141	0.0158173
808.219	0.0156208
808.298	0.0155302
808.376	0.0154013
808.454	0.0155393
808.532	0.0154494
808.610	0.0153253
808.688	0.0152895
808.766	0.0153944
808.844	0.0153268
808.923	0.0152975
809.001	0.0154723
809.079	0.0152905
809.157	0.0152602
809.235	0.0153606
809.313	0.0152796
809.391	0.0153867
809.469	0.0153162
809.548	0.0152913
809.626	0.0153180
809.704	0.0153255
809.782	0.0152734
809.860	0.0154176
809.938	0.0153082
810.016	0.0153277
810.094	0.0153085
810.173	0.0152214
810.251	0.0152296
810.329	0.0151379
810.407	0.0152543
810.485	0.0151718
810.563	0.0151330
810.641	0.0152614
810.719	0.0152627
810.798	0.0151424
810.876	0.0154386
810.954	0.0153543
811.032	0.0153716
811.110	0.0153470
811.188	0.0155962
811.266	0.0155510
811.344	0.0155708
811.423	0.0158096
811.501	0.0157425
811.579	0.0156508
811.657	0.0156351
811.735	0.0157110
811.813	0.0157502
811.891	0.0157868
811.969	0.0157295
812.048	0.0156945
812.126	0.0157655
812.204	0.0156792
812.282	0.0156367
812.360	0.0155119
812.438	0.0155727
812.516	0.0154848
812.594	0.0152560
812.673	0.0153619
812.751	0.0153677
812.829	0.0153249
812.907	0.0153188
812.985	0.0151341
813.063	0.0151598
813.141	0.0150253
813.219	0.0150634
813.298	0.0150967
813.376	0.0153236
813.454	0.0152045
813.532	0.0152061
813.610	0.0152849
813.688	0.0153075
813.766	0.0153291
813.844	0.0154160
813.923	0.0153537
814.001	0.0153294
814.079	0.0154243
814.157	0.0154889
814.235	0.0155640
814.313	0.0155049
814.391	0.0155749
814.469	0.0156236
814.548	0.0155899
814.626	0.0156081
814.704	0.0155380
814.782	0.0155532
814.860	0.0154581
814.938	0.0154483
815.016	0.0154115
815.094	0.0153522
815.173	0.0153345
815.251	0.0154105
815.329	0.0154211
815.407	0.0153802
815.485	0.0153818
815.563	0.0154176
815.641	0.0151206
815.719	0.0152078
815.798	0.0152148
815.876	0.0153289
815.954	0.0153015
816.032	0.0152706
816.110	0.0151947
816.188	0.0151386
816.266	0.0152497
816.344	0.0152743
816.423	0.0151503
816.501	0.0152405
816.579	0.0152731
816.657	0.0152286
816.735	0.0153016
816.813	0.0153474
816.891	0.0152287
816.969	0.0153746
817.048	0.0152258
817.126	0.0153355
817.204	0.0155145
817.282	0.0154572
817.360	0.0155258
817.438	0.0155234
817.516	0.0156561
817.594	0.0156144
817.673	0.0155931
817.751	0.0156187
817.829	0.0155455
817.907	0.0156357
817.985	0.0155932
818.063	0.0154324
818.141	0.0155453
818.219	0.0154929
818.298	0.0154028
818.376	0.0152702
818.454	0.0153532
818.532	0.0152769
818.610	0.0151842
818.688	0.0152535
818.766	0.0153903
818.844	0.0152846
818.923	0.0153917
819.001	0.0152333
819.079	0.0152509
819.157	0.0154182
819.235	0.0154086
819.313	0.0155310
819.391	0.0156465
819.469	0.0157169
819.548	0.0156218
819.626	0.0156142
819.704	0.0157052
819.782	0.0155948
819.860	0.0156968
819.938	0.0157669
820.016	0.0156530
820.094	0.0155217
820.173	0.0155476
820.251	0.0153947
820.329	0.0154485
820.407	0.0152299
820.485	0.0154391
820.563	0.0154433
820.641	0.0152946
820.719	0.0152462
820.798	0.0151671
820.876	0.0152325
820.954	0.0151605
821.032	0.0151173
821.110	0.0151092
821.188	0.0152518
821.266	0.0152205
821.344	0.0151975
821.423	0.0151043
821.501	0.0151190
821.579	0.0151150
821.657	0.0150759
821.735	0.0150392
821.813	0.0150504
821.891	0.0150317
821.969	0.0150619
822.048	0.0150988
822.126	0.0150748
822.204	0.0151044
822.282	0.0150561
822.360	0.0150757
822.438	0.0150747
822.516	0.0150636
822.594	0.0152571
822.673	0.0151865
822.751	0.0152889
822.829	0.0152714
822.907	0.0152760
822.985	0.0154903
823.063	0.0153928
823.141	0.0154451
823.219	0.0154016
823.298	0.0154710
823.376	0.0155252
823.454	0.0155318
823.532	0.0155285
823.610	0.0154987
823.688	0.0157774
823.766	0.0155450
823.844	0.0155392
823.923	0.0155827
824.001	0.0155988
824.079	0.0155743
824.157	0.0155967
824.235	0.0158309
824.313	0.0156737
824.391	0.0155905
824.469	0.0156568
824.548	0.0156815
824.626	0.0157072
824.704	0.0158202
824.782	0.0158368
824.860	0.0158805
824.938	0.0158393
825.016	0.0157550
825.094	0.0158638
825.173	0.0157927
825.251	0.0157623
825.329	0.0156722
825.407	0.0157100
825.485	0.0155738
825.563	0.0155585
825.641	0.0155579
825.719	0.0155002
825.798	0.0154785
825.876	0.0152728
825.954	0.0153417
826.032	0.0151828
826.110	0.0154243
826.188	0.0151901
826.266	0.0151243
826.344	0.0150859
826.423	0.0150198
826.501	0.0151047
826.579	0.0150352
826.657	0.0151021
826.735	0.0148939
826.813	0.0149532
826.891	0.0149264
826.969	0.0149822
827.048	0.0149985
827.126	0.0151015
827.204	0.0148664
827.282	0.0149609
827.360	0.0149580
827.438	0.0149918
827.516	0.0150227
827.594	0.0151167
827.673	0.0150531
827.751	0.0149049
827.829	0.0151688
827.907	0.0151895
827.985	0.0151419
828.063	0.0150594
828.141	0.0151014
828.219	0.0153882
828.298	0.0153142
828.376	0.0154752
828.454	0.0155135
828.532	0.0156086
828.610	0.0156734
828.688	0.0156393
828.766	0.0156214
828.844	0.0157647
828.923	0.0158601
829.001	0.0157146
829.079	0.0158466
829.157	0.0158491
829.235	0.0157034
829.313	0.0157885
829.391	0.0157848
829.469	0.0157074
829.548	0.0158318
829.626	0.0159370
829.704	0.0159154
829.782	0.0158770
829.860	0.0159140
829.938	0.0159196
830.016	0.0159032
830.094	0.0159356
830.173	0.0160429
830.251	0.0160893
830.329	0.0158281
830.407	0.0158105
830.485	0.0159050
830.563	0.0159528
830.641	0.0158472
830.719	0.0158740
830.798	0.0158345
830.876	0.0157871
830.954	0.0157523
831.032	0.0157514
831.110	0.0154795
831.188	0.0153746
831.266	0.0154140
831.344	0.0153531
831.423	0.0152077
831.501	0.0150041
831.579	0.0150457
831.657	0.0149879
831.735	0.0147841
831.813	0.0146664
831.891	0.0148347
831.969	0.0148763
832.048	0.0147992
832.126	0.0147821
832.204	0.0147670
832.282	0.0148196
832.360	0.0148014
832.438	0.0149241
832.516	0.0150418
832.594	0.0149940
832.673	0.0148861
832.751	0.0148997
832.829	0.0151969
832.907	0.0150840
832.985	0.0152970
833.063	0.0152604
833.141	0.0152303
833.219	0.0151775
833.298	0.0152921
833.376	0.0154144
833.454	0.0152535
833.532	0.0154200
833.610	0.0154272
833.688	0.0155085
833.766	0.0154726
833.844	0.0155524
833.923	0.0156166
834.001	0.0157111
834.079	0.0155219
834.157	0.0156837
834.235	0.0157608
834.313	0.0157607
834.391	0.0157106
834.469	0.0156544
834.548	0.0158048
834.626	0.0158074
834.704	0.0159067
834.782	0.0159303
834.860	0.0158812
834.938	0.0159164
835.016	0.0158965
835.094	0.0158817
835.173	0.0157412
835.251	0.0156938
835.329	0.0157109
835.407	0.0155943
835.485	0.0156269
835.563	0.0157253
835.641	0.0157252
835.719	0.0155638
835.798	0.0156918
835.876	0.0156009
835.954	0.0156419
836.032	0.0156705
836.110	0.0155974
836.188	0.0154459
836.266	0.0155296
836.344	0.0155110
836.423	0.0155493
836.501	0.0153688
836.579	0.0154716
836.657	0.0156588
836.735	0.0155582
836.813	0.0154449
836.891	0.0154951
836.969	0.0154937
837.048	0.0154301
837.126	0.0154211
837.204	0.0153390
837.282	0.0153981
837.360	0.0153093
837.438	0.0153770
837.516	0.0153364
837.594	0.0152871
837.673	0.0152779
837.751	0.0151872
837.829	0.0151611
837.907	0.0151823
837.985	0.0150895
838.063	0.0151508
838.141	0.0151332
838.219	0.0152876
838.298	0.0153099
838.376	0.0150069
838.454	0.0150269
838.532	0.0151603
838.610	0.0152154
838.688	0.0150043
838.766	0.0150491
838.844	0.0150684
838.923	0.0150757
839.001	0.0150822
839.079	0.0151779
839.157	0.0150826
839.235	0.0151626
839.313	0.0151013
839.391	0.0153060
839.469	0.0152711
839.548	0.0154008
839.626	0.0152580
839.704	0.0154260
839.782	0.0154253
839.860	0.0153897
839.938	0.0155874
840.016	0.0155479
840.094	0.0156427
840.173	0.0156758
840.251	0.0155979
840.329	0.0156488
840.407	0.0157442
840.485	0.0158228
840.563	0.0156151
840.641	0.0157046
840.719	0.0157393
840.798	0.0157484
840.876	0.0157220
840.954	0.0157726
841.032	0.0156236
841.110	0.0156001
841.188	0.0155567
841.266	0.0156403
841.344	0.0155473
841.423	0.0156698
841.501	0.0154713
841.579	0.0155415
841.657	0.0156573
841.735	0.0155475
841.813	0.0155650
841.891	0.0154073
841.969	0.0155209
842.048	0.0153634
842.126	0.0153776
842.204	0.0154892
842.282	0.0154430
842.360	0.0154359
842.438	0.0154077
842.516	0.0153541
842.594	0.0154136
842.673	0.0154328
842.751	0.0154733
842.829	0.0153860
842.907	0.0153687
842.985	0.0153088
843.063	0.0153529
843.141	0.0153066
843.219	0.0153689
843.298	0.0151847
843.376	0.0152782
843.454	0.0153561
843.532	0.0154085
843.610	0.0153168
843.688	0.0154616
843.766	0.0152488
843.844	0.0153050
843.923	0.0152142
844.001	0.0153934
844.079	0.0153018
844.157	0.0152914
844.235	0.0153543
844.313	0.0151534
844.391	0.0152277
844.469	0.0153353
844.548	0.0151884
844.626	0.0150749
844.704	0.0151479
844.782	0.0151517
844.860	0.0151373
844.938	0.0152262
845.016	0.0153224
845.094	0.0151612
845.173	0.0151030
845.251	0.0152447
845.329	0.0152383
845.407	0.0154820
845.485	0.0154191
845.563	0.0154063
845.641	0.0154826
845.719	0.0154388
845.798	0.0155940
845.876	0.0154725
845.954	0.0155128
846.032	0.0154131
846.110	0.0155245
846.188	0.0156264
846.266	0.0157050
846.344	0.0154769
846.423	0.0154845
846.501	0.0154881
846.579	0.0154269
846.657	0.0154760
846.735	0.0154150
846.813	0.0153536
846.891	0.0154383
846.969	0.0153697
847.048	0.0154103
847.126	0.0152894
847.204	0.0153307
847.282	0.0151973
847.360	0.0153028
847.438	0.0153092
847.516	0.0153048
847.594	0.0152296
847.673	0.0152175
847.751	0.0151299
847.829	0.0152532
847.907	0.0152760
847.985	0.0152550
848.063	0.0153265
848.141	0.0154133
848.219	0.0152605
848.298	0.0152987
848.376	0.0154044
848.454	0.0155621
848.532	0.0155508
848.610	0.0155927
848.688	0.0156034
848.766	0.0156561
848.844	0.0155979
848.923	0.0155772
849.001	0.0156525
849.079	0.0157545
849.157	0.0157133
849.235	0.0157751
849.313	0.0156631
849.391	0.0156673
849.469	0.0157220
849.548	0.0155871
849.626	0.0157457
849.704	0.0155082
849.782	0.0156502
849.860	0.0154373
849.938	0.0155682
850.016	0.0156493
850.094	0.0154929
850.173	0.0154962
850.251	0.0155340
850.329	0.0154762
850.407	0.0154196
850.485	0.0153403
850.563	0.0152776
850.641	0.0152697
850.719	0.0152778
850.798	0.0150935
850.876	0.0150726
850.954	0.0151425
851.032	0.0150003
851.110	0.0149645
851.188	0.0150191
851.266	0.0150652
851.344	0.0151780
851.423	0.0150671
851.501	0.0149818
851.579	0.0151499
851.657	0.0150448
851.735	0.0151482
851.813	0.0152046
851.891	0.0150241
851.969	0.0151539
852.048	0.0152435
852.126	0.0152435
852.204	0.0152590
852.282	0.0151247
852.360	0.0154385
852.438	0.0152866
852.516	0.0153026
852.594	0.0153300
852.673	0.0154185
852.751	0.0154192
852.829	0.0153250
852.907	0.0153010
852.985	0.0152232
853.063	0.0153600
853.141	0.0154406
853.219	0.0156039
853.298	0.0156091
853.376	0.0155927
853.454	0.0155888
853.532	0.0156690
853.610	0.0156168
853.688	0.0155943
853.766	0.0156616
853.844	0.0157208
853.923	0.0159325
854.001	0.0157092
854.079	0.0158138
854.157	0.0157859
854.235	0.0158813
854.313	0.0158727
854.391	0.0157861
854.469	0.0158640
854.548	0.0157500
854.626	0.0159415
854.704	0.0158069
854.782	0.0158366
854.860	0.0157975
854.938	0.0157095
855.016	0.0157981
855.094	0.0157585
855.173	0.0156084
855.251	0.0156548
855.329	0.0155734
855.407	0.0156203
855.485	0.0156234
855.563	0.0156354
855.641	0.0155680
855.719	0.0153237
855.798	0.0154042
855.876	0.0155531
855.954	0.0154214
856.032	0.0154367
856.110	0.0153220
856.188	0.0153470
856.266	0.0155028
856.344	0.0152771
856.423	0.0152746
856.501	0.0152074
856.579	0.0152539
856.657	0.0152644
856.735	0.0151945
856.813	0.0152673
856.891	0.0150816
856.969	0.0151187
857.048	0.0151759
857.126	0.0151121
857.204	0.0150667
857.282	0.0150783
857.360	0.0152547
857.438	0.0150536
857.516	0.0151919
857.594	0.0150677
857.673	0.0152142
857.751	0.0151692
857.829	0.0151540
857.907	0.0152365
857.985	0.0152421
858.063	0.0152280
858.141	0.0154157
858.219	0.0153270
858.298	0.0152934
858.376	0.0153486
858.454	0.0154678
858.532	0.0154636
858.610	0.0153571
858.688	0.0153788
858.766	0.0154388
858.844	0.0153540
858.923	0.0153539
859.001	0.0153242
859.079	0.0154536
859.157	0.0153865
859.235	0.0154401
859.313	0.0155571
859.391	0.0155141
859.469	0.0154651
859.548	0.0154287
859.626	0.0155838
859.704	0.0156106
859.782	0.0155521
859.860	0.0156718
859.938	0.0158647
860.016	0.0156300
860.094	0.0156615
860.173	0.0157227
860.251	0.0158717
860.329	0.0159419
860.407	0.0159823
860.485	0.0158462
860.563	0.0159852
860.641	0.0162250
860.719	0.0160939
860.798	0.0161008
860.876	0.0161313
860.954	0.0159203
861.032	0.0160012
861.110	0.0159778
861.188	0.0158437
861.266	0.0157305
861.344	0.0156469
861.423	0.0156977
861.501	0.0156630
861.579	0.0155030
861.657	0.0153559
861.735	0.0153718
861.813	0.0152703
861.891	0.0152484
861.969	0.0151879
862.048	0.0151099
862.126	0.0152140
862.204	0.0151434
862.282	0.0149998
862.360	0.0150668
862.438	0.0151231
862.516	0.0149960
862.594	0.0150821
862.673	0.0151735
862.751	0.0151617
862.829	0.0149141
862.907	0.0150057
862.985	0.0152114
863.063	0.0151592
863.141	0.0151580
863.219	0.0152242
863.298	0.0150810
863.376	0.0151942
863.454	0.0151175
863.532	0.0151174
863.610	0.0154472
863.688	0.0151304
863.766	0.0150038
863.844	0.0152468
863.923	0.0151231
864.001	0.0150639
864.079	0.0152220
864.157	0.0152895
864.235	0.0152705
864.313	0.0151572
864.391	0.0151824
864.469	0.0152644
864.548	0.0153757
864.626	0.0154308
864.704	0.0153339
864.782	0.0154408
864.860	0.0153466
864.938	0.0154602
865.016	0.0155058
865.094	0.0155162
865.173	0.0155170
865.251	0.0154545
865.329	0.0154989
865.407	0.0155132
865.485	0.0154720
865.563	0.0156879
865.641	0.0156416
865.719	0.0156011
865.798	0.0155496
865.876	0.0155476
865.954	0.0156954
866.032	0.0157082
866.110	0.0156782
866.188	0.0156917
866.266	0.0157506
866.344	0.0157607
866.423	0.0156210
866.501	0.0156818
866.579	0.0156870
866.657	0.0155981
866.735	0.0155467
866.813	0.0157238
866.891	0.0156463
866.969	0.0156284
867.048	0.0156464
867.126	0.0155334
867.204	0.0155408
867.282	0.0154575
867.360	0.0155222
867.438	0.0156142
867.516	0.0156431
867.594	0.0154733
867.673	0.0153466
867.751	0.0154874
867.829	0.0154494
867.907	0.0153667
867.985	0.0154765
868.063	0.0154379
868.141	0.0154416
868.219	0.0153356
868.298	0.0152215
868.376	0.0152723
868.454	0.0154037
868.532	0.0152956
868.610	0.0151672
868.688	0.0151518
868.766	0.0150829
868.844	0.0150655
868.923	0.0150486
869.001	0.0149337
869.079	0.0148921
869.157	0.0147845
869.235	0.0148823
869.313	0.0148526
869.391	0.0149793
869.469	0.0149654
869.548	0.0148525
869.626	0.0151468
869.704	0.0150258
869.782	0.0150323
869.860	0.0150762
869.938	0.0151719
870.016	0.0152503
870.094	0.0153005
870.173	0.0153114
870.251	0.0152772
870.329	0.0155133
870.407	0.0155145
870.485	0.0155389
870.563	0.0153708
870.641	0.0155755
870.719	0.0156896
870.798	0.0155775
870.876	0.0156525
870.954	0.0157525
871.032	0.0156867
871.110	0.0157258
871.188	0.0156383
871.266	0.0156904
871.344	0.0156887
871.423	0.0157309
871.501	0.0156986
871.579	0.0157053
871.657	0.0156557
871.735	0.0157020
871.813	0.0156098
871.891	0.0155598
871.969	0.0155939
872.048	0.0156053
872.126	0.0155541
872.204	0.0155889
872.282	0.0155862
872.360	0.0155545
872.438	0.0155961
872.516	0.0155031
872.594	0.0155598
872.673	0.0155025
872.751	0.0155878
872.829	0.0156289
872.907	0.0155275
872.985	0.0154108
873.063	0.0155492
873.141	0.0155389
873.219	0.0154618
873.298	0.0154158
873.376	0.0153929
873.454	0.0154256
873.532	0.0153320
873.610	0.0153194
873.688	0.0154359
873.766	0.0153895
873.844	0.0154975
873.923	0.0155067
874.001	0.0154388
874.079	0.0154199
874.157	0.0154050
874.235	0.0153371
874.313	0.0153739
874.391	0.0155611
874.469	0.0154533
874.548	0.0153127
874.626	0.0152715
874.704	0.0152357
874.782	0.0153654
874.860	0.0152389
874.938	0.0152821
875.016	0.0152720
875.094	0.0151642
875.173	0.0152242
875.251	0.0152898
875.329	0.0151904
875.407	0.0153528
875.485	0.0152859
875.563	0.0151997
875.641	0.0153242
875.719	0.0150702
875.798	0.0150769
875.876	0.0151706
875.954	0.0152334
876.032	0.0152499
876.110	0.0152330
876.188	0.0151960
876.266	0.0152058
876.344	0.0151644
876.423	0.0152306
876.501	0.0152688
876.579	0.0151022
876.657	0.0152054
876.735	0.0152428
876.813	0.0153891
876.891	0.0152496
876.969	0.0152316
877.048	0.0152125
877.126	0.0154833
877.204	0.0154691
877.282	0.0153976
877.360	0.0154296
877.438	0.0154550
877.516	0.0153510
877.594	0.0153756
877.673	0.0155598
877.751	0.0156046
877.829	0.0155852
877.907	0.0156178
877.985	0.0156551
878.063	0.0155900
878.141	0.0156796
878.219	0.0156549
878.298	0.0157763
878.376	0.0157356
878.454	0.0157898
878.532	0.0157451
878.610	0.0157567
878.688	0.0156929
878.766	0.0157502
878.844	0.0156546
878.923	0.0156811
879.001	0.0156210
879.079	0.0154407
879.157	0.0157285
879.235	0.0154869
879.313	0.0154495
879.391	0.0154925
879.469	0.0154410
879.548	0.0153617
879.626	0.0153411
879.704	0.0153894
879.782	0.0153893
879.860	0.0152258
879.938	0.0153306
880.016	0.0152953
880.094	0.0152292
880.173	0.0153375
880.251	0.0152744
880.329	0.0152865
880.407	0.0152458
880.485	0.0151468
880.563	0.0151877
880.641	0.0151664
880.719	0.0150024
880.798	0.0152399
880.876	0.0152865
880.954	0.0152017
881.032	0.0152831
881.110	0.0151580
881.188	0.0151086
881.266	0.0152757
881.344	0.0150812
881.423	0.0150869
881.501	0.0151622
881.579	0.0151320
881.657	0.0150356
881.735	0.0151699
881.813	0.0151774
881.891	0.0152763
881.969	0.0152596
882.048	0.0153455
882.126	0.0154498
882.204	0.0156341
882.282	0.0156733
882.360	0.0158620
882.438	0.0158727
882.516	0.0158765
882.594	0.0159055
882.673	0.0157882
882.751	0.0159347
882.829	0.0157837
882.907	0.0155467
882.985	0.0154043
883.063	0.0152657
883.141	0.0150919
883.219	0.0151157
883.298	0.0148971
883.376	0.0147182
883.454	0.0148814
883.532	0.0148958
883.610	0.0148618
883.688	0.0149592
883.766	0.0150834
883.844	0.0153744
883.923	0.0154402
884.001	0.0155416
884.079	0.0158447
884.157	0.0157766
884.235	0.0158335
884.313	0.0160247
884.391	0.0161288
884.469	0.0161490
884.548	0.0160783
884.626	0.0160249
884.704	0.0161169
884.782	0.0159751
884.860	0.0158080
884.938	0.0156104
885.016	0.0155286
885.094	0.0152771
885.173	0.0153358
885.251	0.0151432
885.329	0.0149522
885.407	0.0148882
885.485	0.0147456
885.563	0.0147165
885.641	0.0147080
885.719	0.0148235
885.798	0.0149924
885.876	0.0150743
885.954	0.0151447
886.032	0.0153521
886.110	0.0155537
886.188	0.0156065
886.266	0.0155833
886.344	0.0156380
886.423	0.0158900
886.501	0.0159250
886.579	0.0159478
886.657	0.0160828
886.735	0.0161066
886.813	0.0159677
886.891	0.0159672
886.969	0.0159053
887.048	0.0157665
887.126	0.0157545
887.204	0.0155746
887.282	0.0153780
887.360	0.0152522
887.438	0.0152025
887.516	0.0151073
887.594	0.0150229
887.673	0.0147717
887.751	0.0146948
887.829	0.0148795
887.907	0.0146545
887.985	0.0145919
888.063	0.0145280
888.141	0.0146653
888.219	0.0148513
888.298	0.0148349
888.376	0.0146303
888.454	0.0147816
888.532	0.0149917
888.610	0.0151682
888.688	0.0151906
888.766	0.0151892
888.844	0.0153788
888.923	0.0155437
889.001	0.0155032
889.079	0.0154521
889.157	0.0156487
889.235	0.0157776
889.313	0.0157863
889.391	0.0155702
889.469	0.0158070
889.548	0.0156685
889.626	0.0158268
889.704	0.0157391
889.782	0.0157030
889.860	0.0157547
889.938	0.0157632
890.016	0.0157771
890.094	0.0156750
890.173	0.0157706
890.251	0.0156072
890.329	0.0156917
890.407	0.0157212
890.485	0.0155649
890.563	0.0155802
890.641	0.0157764
890.719	0.0153995
890.798	0.0154794
890.876	0.0154709
890.954	0.0154541
891.032	0.0154359
891.110	0.0153402
891.188	0.0154064
891.266	0.0151997
891.344	0.0154694
891.423	0.0152225
891.501	0.0152805
891.579	0.0151056
891.657	0.0150742
891.735	0.0152025
891.813	0.0151766
891.891	0.0152474
891.969	0.0152058
892.048	0.0152868
892.126	0.0153014
892.204	0.0152269
892.282	0.0153782
892.360	0.0153901
892.438	0.0153705
892.516	0.0152810
892.594	0.0153214
892.673	0.0154498
892.751	0.0155089
892.829	0.0154233
892.907	0.0153958
892.985	0.0153719
893.063	0.0153583
893.141	0.0154626
893.219	0.0155522
893.298	0.0154852
893.376	0.0155960
893.454	0.0156589
893.532	0.0155276
893.610	0.0154964
893.688	0.0156025
893.766	0.0155481
893.844	0.0154928
893.923	0.0154981
894.001	0.0153998
894.079	0.0153775
894.157	0.0153553
894.235	0.0152958
894.313	0.0152673
894.391	0.0152338
894.469	0.0151807
894.548	0.0151447
894.626	0.0150393
894.704	0.0151186
894.782	0.0151286
894.860	0.0150834
894.938	0.0150491
895.016	0.0151678
895.094	0.0152731
895.173	0.0152764
895.251	0.0152599
895.329	0.0152929
895.407	0.0152605
895.485	0.0153989
895.563	0.0152747
895.641	0.0154198
895.719	0.0154102
895.798	0.0154088
895.876	0.0154135
895.954	0.0153940
896.032	0.0155175
896.110	0.0155173
896.188	0.0154820
896.266	0.0154513
896.344	0.0155323
896.423	0.0154618
896.501	0.0153814
896.579	0.0154224
896.657	0.0155595
896.735	0.0153777
896.813	0.0153397
896.891	0.0154243
896.969	0.0153516
897.048	0.0154877
897.126	0.0154864
897.204	0.0155516
897.282	0.0154633
897.360	0.0154180
897.438	0.0155210
897.516	0.0153822
897.594	0.0154224
897.673	0.0152134
897.751	0.0151842
897.829	0.0154132
897.907	0.0153521
897.985	0.0153399
898.063	0.0152766
898.141	0.0153281
898.219	0.0154279
898.298	0.0152391
898.376	0.0151860
898.454	0.0153660
898.532	0.0153872
898.610	0.0153449
898.688	0.0152531
898.766	0.0152693
898.844	0.0152709
898.923	0.0153584
899.001	0.0153688
899.079	0.0155096
899.157	0.0153844
899.235	0.0154929
899.313	0.0154971
899.391	0.0153912
899.469	0.0153265
899.548	0.0153650
899.626	0.0154164
899.704	0.0154737
899.782	0.0153461
899.860	0.0154350
899.938	0.0154202
900.016	0.0153250
900.094	0.0152787
900.173	0.0151585
900.251	0.0152354
900.329	0.0152761
900.407	0.0152038
900.485	0.0151473
900.563	0.0151164
900.641	0.0151082
900.719	0.0151275
900.798	0.0151380
900.876	0.0152206
900.954	0.0151821
901.032	0.0152536
901.110	0.0152742
901.188	0.0153453
901.266	0.0154172
901.344	0.0153803
901.423	0.0154321
901.501	0.0155917
901.579	0.0155644
901.657	0.0156418
901.735	0.0155725
901.813	0.0158012
901.891	0.0156535
901.969	0.0155959
902.048	0.0156034
902.126	0.0155147
902.204	0.0153688
902.282	0.0155494
902.360	0.0153964
902.438	0.0153340
902.516	0.0153917
902.594	0.0153148
902.673	0.0153802
902.751	0.0154118
902.829	0.0154576
902.907	0.0154488
902.985	0.0154729
903.063	0.0155852
903.141	0.0154459
903.219	0.0155144
903.298	0.0155199
903.376	0.0154697
903.454	0.0155771
903.532	0.0156274
903.610	0.0154578
903.688	0.0154084
903.766	0.0152972
903.844	0.0153481
903.923	0.0152454
904.001	0.0152958
904.079	0.0152249
904.157	0.0150587
904.235	0.0149916
904.313	0.0150230
904.391	0.0150097
904.469	0.0151176
904.548	0.0151194
904.626	0.0150830
904.704	0.0150920
904.782	0.0151054
904.860	0.0151961
904.938	0.0152846
905.016	0.0154243
905.094	0.0154538
905.173	0.0155240
905.251	0.0154890
905.329	0.0155746
905.407	0.0157033
905.485	0.0157928
905.563	0.0157381
905.641	0.0156294
905.719	0.0157574
905.798	0.0158852
905.876	0.0157581
905.954	0.0158665
906.032	0.0159490
906.110	0.0156207
906.188	0.0158350
906.266	0.0157687
906.344	0.0157574
906.423	0.0157265
906.501	0.0156013
906.579	0.0156249
906.657	0.0154802
906.735	0.0154288
906.813	0.0154083
906.891	0.0154138
906.969	0.0154531
907.048	0.0153352
907.126	0.0153448
907.204	0.0152656
907.282	0.0153608
907.360	0.0152799
907.438	0.0154176
907.516	0.0154829
907.594	0.0152622
907.673	0.0153512
907.751	0.0154408
907.829	0.0154472
907.907	0.0153570
907.985	0.0155593
908.063	0.0155034
908.141	0.0155576
908.219	0.0154847
908.298	0.0155479
908.376	0.0155138
908.454	0.0155120
908.532	0.0155010
908.610	0.0153027
908.688	0.0153249
908.766	0.0154081
908.844	0.0152946
908.923	0.0153168
909.001	0.0152850
909.079	0.0152757
909.157	0.0153592
909.235	0.0151332
909.313	0.0152804
909.391	0.0152592
909.469	0.0151736
909.548	0.0153546
909.626	0.0154292
909.704	0.0154523
909.782	0.0154154
909.860	0.0154585
909.938	0.0155311
910.016	0.0155309
910.094	0.0156439
910.173	0.0154808
910.251	0.0155275
910.329	0.0155153
910.407	0.0155981
910.485	0.0155314
910.563	0.0154369
910.641	0.0154391
910.719	0.0155083
910.798	0.0154129
910.876	0.0153478
910.954	0.0153092
911.032	0.0153537
911.110	0.0153629
911.188	0.0154274
911.266	0.0153259
911.344	0.0154036
911.423	0.0153671
911.501	0.0156207
911.579	0.0155539
911.657	0.0155219
911.735	0.0153863
911.813	0.0154532
911.891	0.0155265
911.969	0.0153883
912.048	0.0155788
912.126	0.0155408
912.204	0.0155016
912.282	0.0154092
912.360	0.0153607
912.438	0.0155292
912.516	0.0152853
912.594	0.0153514
912.673	0.0153549
912.751	0.0154097
912.829	0.0154185
912.907	0.0153915
912.985	0.0153830
913.063	0.0153499
913.141	0.0154098
913.219	0.0154865
913.298	0.0155278
913.376	0.0155947
913.454	0.0155872
913.532	0.0155537
913.610	0.0155659
913.688	0.0156848
913.766	0.0156622
913.844	0.0156320
913.923	0.0156363
914.001	0.0155035
914.079	0.0154877
914.157	0.0155309
914.235	0.0155276
914.313	0.0154175
914.391	0.0153072
914.469	0.0153744
914.548	0.0152544
914.626	0.0151299
914.704	0.0151008
914.782	0.0152814
914.860	0.0151478
914.938	0.0151743
915.016	0.0151736
915.094	0.0151296
915.173	0.0151631
915.251	0.0151357
915.329	0.0151901
915.407	0.0151936
915.485	0.0152853
915.563	0.0152254
915.641	0.0152725
915.719	0.0152934
915.798	0.0153166
915.876	0.0154526
915.954	0.0154636
916.032	0.0155422
916.110	0.0154975
916.188	0.0153822
916.266	0.0153378
916.344	0.0155765
916.423	0.0155074
916.501	0.0154903
916.579	0.0155870
916.657	0.0154702
916.735	0.0154044
916.813	0.0153950
916.891	0.0153603
916.969	0.0152555
917.048	0.0152397
917.126	0.0152463
917.204	0.0152826
917.282	0.0152996
917.360	0.0152249
917.438	0.0152451
917.516	0.0152270
917.594	0.0152702
917.673	0.0154166
917.751	0.0154286
917.829	0.0154400
917.907	0.0153760
917.985	0.0153686
918.063	0.0153876
918.141	0.0152632
918.219	0.0154240
918.298	0.0155438
918.376	0.0153630
918.454	0.0154887
918.532	0.0155014
918.610	0.0155119
918.688	0.0153636
918.766	0.0154124
918.844	0.0154102
918.923	0.0154745
919.001	0.0154391
919.079	0.0155092
919.157	0.0153429
919.235	0.0155613
919.313	0.0155842
919.391	0.0155287
919.469	0.0155097
919.548	0.0155584
919.626	0.0155245
919.704	0.0154453
919.782	0.0154191
919.860	0.0154156
919.938	0.0154099
920.016	0.0153967
920.094	0.0155028
920.173	0.0154678
920.251	0.0154313
920.329	0.0154208
920.407	0.0154519
920.485	0.0154832
920.563	0.0154243
920.641	0.0154863
920.719	0.0153223
920.798	0.0154166
920.876	0.0152935
920.954	0.0152524
921.032	0.0153107
921.110	0.0153383
921.188	0.0152188
921.266	0.0153773
921.344	0.0154283
921.423	0.0156136
921.501	0.0154521
921.579	0.0153861
921.657	0.0154325
921.735	0.0154585
921.813	0.0155560
921.891	0.0154739
921.969	0.0155137
922.048	0.0154459
922.126	0.0155500
922.204	0.0155408
922.282	0.0154804
922.360	0.0155913
922.438	0.0156597
922.516	0.0155503
922.594	0.0155370
922.673	0.0156361
922.751	0.0157346
922.829	0.0155939
922.907	0.0156448
922.985	0.0155128
923.063	0.0153989
923.141	0.0155555
923.219	0.0155979
923.298	0.0155412
923.376	0.0153922
923.454	0.0154964
923.532	0.0153280
923.610	0.0153131
923.688	0.0155370
923.766	0.0154008
923.844	0.0153904
923.923	0.0152972
924.001	0.0152289
924.079	0.0152652
924.157	0.0153266
924.235	0.0152113
924.313	0.0151855
924.391	0.0152186
924.469	0.0153511
924.548	0.0151865
924.626	0.0153493
924.704	0.0151971
924.782	0.0152363
924.860	0.0151504
924.938	0.0152064
925.016	0.0153199
925.094	0.0153173
925.173	0.0151536
925.251	0.0153736
925.329	0.0153358
925.407	0.0154595
925.485	0.0153840
925.563	0.0153362
925.641	0.0152584
925.719	0.0154594
925.798	0.0154012
925.876	0.0153363
925.954	0.0153791
926.032	0.0153617
926.110	0.0154677
926.188	0.0154291
926.266	0.0154075
926.344	0.0155557
926.423	0.0155745
926.501	0.0156493
926.579	0.0155660
926.657	0.0155807
926.735	0.0156078
926.813	0.0155929
926.891	0.0155602
926.969	0.0155042
927.048	0.0155882
927.126	0.0156343
927.204	0.0155175
927.282	0.0155051
927.360	0.0155916
927.438	0.0155814
927.516	0.0155099
927.594	0.0155002
927.673	0.0156331
927.751	0.0155183
927.829	0.0155802
927.907	0.0156445
927.985	0.0154432
928.063	0.0154660
928.141	0.0153614
928.219	0.0156246
928.298	0.0154745
928.376	0.0153872
928.454	0.0154206
928.532	0.0153149
928.610	0.0153245
928.688	0.0154060
928.766	0.0152113
928.844	0.0155199
928.923	0.0152692
929.001	0.0152863
929.079	0.0153748
929.157	0.0153723
929.235	0.0153747
929.313	0.0154025
929.391	0.0152824
929.469	0.0152402
929.548	0.0153796
929.626	0.0153829
929.704	0.0151739
929.782	0.0153102
929.860	0.0153812
929.938	0.0153026
930.016	0.0153480
930.094	0.0152956
930.173	0.0154202
930.251	0.0155654
930.329	0.0154067
930.407	0.0154758
930.485	0.0153925
930.563	0.0155724
930.641	0.0153167
930.719	0.0154891
930.798	0.0153501
930.876	0.0155168
930.954	0.0155305
931.032	0.0153873
931.110	0.0155624
931.188	0.0155007
931.266	0.0155098
931.344	0.0155727
931.423	0.0155247
931.501	0.0156705
931.579	0.0155015
931.657	0.0154865
931.735	0.0156304
931.813	0.0155672
931.891	0.0157059
931.969	0.0155557
932.048	0.0155083
932.126	0.0155675
932.204	0.0156355
932.282	0.0157219
932.360	0.0154749
932.438	0.0155090
932.516	0.0155752
932.594	0.0154570
932.673	0.0153755
932.751	0.0154636
932.829	0.0153774
932.907	0.0153914
932.985	0.0153731
933.063	0.0154337
933.141	0.0154070
933.219	0.0155038
933.298	0.0153995
933.376	0.0153778
933.454	0.0153730
933.532	0.0154784
933.610	0.0155154
933.688	0.0155447
933.766	0.0154806
933.844	0.0155694
933.923	0.0156492
934.001	0.0154919
934.079	0.0156715
934.157	0.0156145
934.235	0.0155494
934.313	0.0154716
934.391	0.0154503
934.469	0.0154266
934.548	0.0153226
934.626	0.0153776
934.704	0.0153108
934.782	0.0153681
934.860	0.0153951
934.938	0.0152921
935.016	0.0153171
935.094	0.0153977
935.173	0.0153336
935.251	0.0151957
935.329	0.0154737
935.407	0.0153719
935.485	0.0154569
935.563	0.0153259
935.641	0.0153744
935.719	0.0154110
935.798	0.0154710
935.876	0.0154514
935.954	0.0153974
936.032	0.0153341
936.110	0.0155500
936.188	0.0155331
936.266	0.0155116
936.344	0.0156094
936.423	0.0156517
936.501	0.0156390
936.579	0.0156499
936.657	0.0156912
936.735	0.0158217
936.813	0.0157024
936.891	0.0157621
936.969	0.0156432
937.048	0.0157988
937.126	0.0157130
937.204	0.0157097
937.282	0.0157430
937.360	0.0156654
937.438	0.0155145
937.516	0.0155782
937.594	0.0154772
937.673	0.0154256
937.751	0.0153777
937.829	0.0153631
937.907	0.0153135
937.985	0.0153876
938.063	0.0152110
938.141	0.0152113
938.219	0.0153316
938.298	0.0150952
938.376	0.0152116
938.454	0.0150898
938.532	0.0152187
938.610	0.0152771
938.688	0.0151927
938.766	0.0153353
938.844	0.0152628
938.923	0.0152824
939.001	0.0152219
939.079	0.0153094
939.157	0.0152486
939.235	0.0153477
939.313	0.0153791
939.391	0.0154642
939.469	0.0153378
939.548	0.0152608
939.626	0.0153819
939.704	0.0154745
939.782	0.0155257
939.860	0.0155444
939.938	0.0156245
940.016	0.0155039
940.094	0.0156584
940.173	0.0154999
940.251	0.0155917
940.329	0.0155859
940.407	0.0154973
940.485	0.0157401
940.563	0.0155669
940.641	0.0155830
940.719	0.0156705
940.798	0.0155927
940.876	0.0155230
940.954	0.0154787
941.032	0.0156819
941.110	0.0155350
941.188	0.0154838
941.266	0.0155355
941.344	0.0154703
941.423	0.0155347
941.501	0.0155275
941.579	0.0154596
941.657	0.0154604
941.735	0.0154110
941.813	0.0155014
941.891	0.0154401
941.969	0.0153955
942.048	0.0154571
942.126	0.0156403
942.204	0.0155164
942.282	0.0155454
942.360	0.0154449
942.438	0.0154971
942.516	0.0154741
942.594	0.0155467
942.673	0.0155349
942.751	0.0155338
942.829	0.0154262
942.907	0.0153752
942.985	0.0154088
943.063	0.0154002
943.141	0.0154277
943.219	0.0153888
943.298	0.0154134
943.376	0.0153827
943.454	0.0152846
943.532	0.0153595
943.610	0.0152480
943.688	0.0152754
943.766	0.0152084
943.844	0.0153690
943.923	0.0152615
944.001	0.0154101
944.079	0.0152662
944.157	0.0154209
944.235	0.0154021
944.313	0.0153091
944.391	0.0152586
944.469	0.0153047
944.548	0.0154451
944.626	0.0155716
944.704	0.0155891
944.782	0.0153580
944.860	0.0153827
944.938	0.0154582
945.016	0.0155481
945.094	0.0155753
945.173	0.0156477
945.251	0.0156227
945.329	0.0156964
945.407	0.0154932
945.485	0.0154704
945.563	0.0155581
945.641	0.0155913
945.719	0.0155830
945.798	0.0155970
945.876	0.0157941
945.954	0.0156741
946.032	0.0156242
946.110	0.0155716
946.188	0.0155884
946.266	0.0155390
946.344	0.0155009
946.423	0.0154951
946.501	0.0155013
946.579	0.0154568
946.657	0.0155254
946.735	0.0153300
946.813	0.0153738
946.891	0.0154368
946.969	0.0152328
947.048	0.0152422
947.126	0.0152177
947.204	0.0152602
947.282	0.0151250
947.360	0.0151491
947.438	0.0152451
947.516	0.0152352
947.594	0.0152876
947.673	0.0151013
947.751	0.0151826
947.829	0.0152103
947.907	0.0153456
947.985	0.0154565
948.063	0.0152866
948.141	0.0152239
948.219	0.0154142
948.298	0.0153691
948.376	0.0153704
948.454	0.0154003
948.532	0.0155187
948.610	0.0154169
948.688	0.0154866
948.766	0.0155003
948.844	0.0154372
948.923	0.0154528
949.001	0.0155360
949.079	0.0156272
949.157	0.0155710
949.235	0.0153706
949.313	0.0154284
949.391	0.0155421
949.469	0.0156243
949.548	0.0155035
949.626	0.0155572
949.704	0.0154534
949.782	0.0154783
949.860	0.0155639
949.938	0.0155410
950.016	0.0155913
950.094	0.0154669
950.173	0.0155204
950.251	0.0154150
950.329	0.0154881
950.407	0.0156059
950.485	0.0156033
950.563	0.0155760
950.641	0.0154726
950.719	0.0155913
950.798	0.0155216
950.876	0.0154222
950.954	0.0153698
951.032	0.0153471
951.110	0.0153526
951.188	0.0153480
951.266	0.0153599
951.344	0.0154291
951.423	0.0153028
951.501	0.0152752
951.579	0.0154396
951.657	0.0151844
951.735	0.0152948
951.813	0.0154005
951.891	0.0151731
951.969	0.0153312
952.048	0.0154556
952.126	0.0152618
952.204	0.0152187
952.282	0.0154001
952.360	0.0153744
952.438	0.0154429
952.516	0.0154694
952.594	0.0154568
952.673	0.0154566
952.751	0.0155470
952.829	0.0155315
952.907	0.0155482
952.985	0.0154967
953.063	0.0155326
953.141	0.0155096
953.219	0.0153481
953.298	0.0153804
953.376	0.0153692
953.454	0.0153548
953.532	0.0153997
953.610	0.0154420
953.688	0.0153915
953.766	0.0155814
953.844	0.0153551
953.923	0.0152939
954.001	0.0154514
954.079	0.0154977
954.157	0.0154604
954.235	0.0152565
954.313	0.0153819
954.391	0.0154271
954.469	0.0154164
954.548	0.0153702
954.626	0.0154946
954.704	0.0155460
954.782	0.0153834
954.860	0.0154637
954.938	0.0154265
955.016	0.0155469
955.094	0.0154492
955.173	0.0155794
955.251	0.0154852
955.329	0.0154218
955.407	0.0155080
955.485	0.0155289
955.563	0.0154505
955.641	0.0155537
955.719	0.0153643
955.798	0.0154726
955.876	0.0154984
955.954	0.0153829
956.032	0.0156216
956.110	0.0156257
956.188	0.0155268
956.266	0.0155566
956.344	0.0155254
956.423	0.0155535
956.501	0.0154229
956.579	0.0154757
956.657	0.0156353
956.735	0.0154926
956.813	0.0153538
956.891	0.0154871
956.969	0.0154842
957.048	0.0154893
957.126	0.0155907
957.204	0.0154102
957.282	0.0156367
957.360	0.0155167
957.438	0.0154008
957.516	0.0154580
957.594	0.0155598
957.673	0.0154739
957.751	0.0155157
957.829	0.0155624
957.907	0.0154880
957.985	0.0155773
958.063	0.0155577
958.141	0.0155258
958.219	0.0156116
958.298	0.0153953
958.376	0.0154676
958.454	0.0154608
958.532	0.0154433
958.610	0.0154006
958.688	0.0154278
958.766	0.0153958
958.844	0.0153262
958.923	0.0154455
959.001	0.0154659
959.079	0.0155081
959.157	0.0153296
959.235	0.0153146
959.313	0.0153643
959.391	0.0152700
959.469	0.0151962
959.548	0.0152980
959.626	0.0151672
959.704	0.0153260
959.782	0.0153866
959.860	0.0154283
959.938	0.0154531
960.016	0.0155760
960.094	0.0154951
960.173	0.0156069
960.251	0.0156739
960.329	0.0156593
960.407	0.0157418
960.485	0.0157339
960.563	0.0156108
960.641	0.0155212
960.719	0.0155015
960.798	0.0155106
960.876	0.0154941
960.954	0.0153683
961.032	0.0151929
961.110	0.0152303
961.188	0.0153300
961.266	0.0152098
961.344	0.0152131
961.423	0.0152551
961.501	0.0152428
961.579	0.0155235
961.657	0.0156171
961.735	0.0155734
961.813	0.0158173
961.891	0.0157663
961.969	0.0158251
962.048	0.0159031
962.126	0.0157996
962.204	0.0156767
962.282	0.0157829
962.360	0.0156559
962.438	0.0156791
962.516	0.0155552
962.594	0.0153741
962.673	0.0152596
962.751	0.0152889
962.829	0.0151984
962.907	0.0151550
962.985	0.0152309
963.063	0.0152550
963.141	0.0153357
963.219	0.0153205
963.298	0.0153276
963.376	0.0153818
963.454	0.0154231
963.532	0.0154795
963.610	0.0155905
963.688	0.0155920
963.766	0.0156274
963.844	0.0156512
963.923	0.0156187
964.001	0.0153976
964.079	0.0155311
964.157	0.0154616
964.235	0.0154479
964.313	0.0153177
964.391	0.0153030
964.469	0.0152665
964.548	0.0151689
964.626	0.0151258
964.704	0.0154191
964.782	0.0153088
964.860	0.0151373
964.938	0.0151930
965.016	0.0153092
965.094	0.0154083
965.173	0.0155137
965.251	0.0154698
965.329	0.0155412
965.407	0.0155666
965.485	0.0156616
965.563	0.0156906
965.641	0.0155795
965.719	0.0154626
965.798	0.0155358
965.876	0.0154991
965.954	0.0155293
966.032	0.0153328
966.110	0.0153439
966.188	0.0153748
966.266	0.0151890
966.344	0.0152507
966.423	0.0152757
966.501	0.0150132
966.579	0.0152119
966.657	0.0152605
966.735	0.0151749
966.813	0.0152929
966.891	0.0152334
966.969	0.0152584
967.048	0.0152924
967.126	0.0153068
967.204	0.0153725
967.282	0.0153349
967.360	0.0153482
967.438	0.0154320
967.516	0.0153612
967.594	0.0155973
967.673	0.0155715
967.751	0.0155347
967.829	0.0156265
967.907	0.0156960
967.985	0.0156701
968.063	0.0157108
968.141	0.0157770
968.219	0.0156044
968.298	0.0154682
968.376	0.0155761
968.454	0.0154773
968.532	0.0154577
968.610	0.0153346
968.688	0.0153310
968.766	0.0152200
968.844	0.0150962
968.923	0.0151234
969.001	0.0149692
969.079	0.0149866
969.157	0.0149406
969.235	0.0149992
969.313	0.0151659
969.391	0.0151445
969.469	0.0152299
969.548	0.0152032
969.626	0.0154615
969.704	0.0156549
969.782	0.0155047
969.860	0.0156409
969.938	0.0157950
