05/14/2022	19:13:04	Ver.	4.1	UNKNOWN
Optical Delay	650.016352	Delta X		0.078125	Sweeps	1	Scan Rate	0/0
Coordinates	Axis 1	NaN	Axis 2	NaN	Axis 3	NaN	Axis 4	NaN	Axis 5	NaN	Axis 6	0.000000
TX Power	0.000000	RX Power	0.000000

650.016	0.0151919
650.094	0.0152160
650.173	0.0152603
650.251	0.0151062
650.329	0.0152366
650.407	0.0152717
650.485	0.0152810
650.563	0.0151510
650.641	0.0152091
650.719	0.0151643
650.798	0.0151597
650.876	0.0152239
650.954	0.0151877
651.032	0.0152188
651.110	0.0152290
651.188	0.0151431
651.266	0.0153468
651.344	0.0153437
651.423	0.0151936
651.501	0.0151575
651.579	0.0151907
651.657	0.0151379
651.735	0.0152007
651.813	0.0151696
651.891	0.0151685
651.969	0.0152316
652.048	0.0152254
652.126	0.0151970
652.204	0.0151720
652.282	0.0152794
652.360	0.0151958
652.438	0.0151444
652.516	0.0151103
652.594	0.0152641
652.673	0.0152013
652.751	0.0152417
652.829	0.0151573
652.907	0.0152725
652.985	0.0151187
653.063	0.0152081
653.141	0.0152135
653.219	0.0151921
653.298	0.0152538
653.376	0.0151566
653.454	0.0151472
653.532	0.0152912
653.610	0.0151369
653.688	0.0152283
653.766	0.0152156
653.844	0.0152351
653.923	0.0151849
654.001	0.0151756
654.079	0.0151555
654.157	0.0152465
654.235	0.0151312
654.313	0.0152115
654.391	0.0151993
654.469	0.0151918
654.548	0.0151702
654.626	0.0151035
654.704	0.0152089
654.782	0.0153635
654.860	0.0151543
654.938	0.0151073
655.016	0.0151347
655.094	0.0152886
655.173	0.0151037
655.251	0.0151216
655.329	0.0151404
655.407	0.0151926
655.485	0.0150970
655.563	0.0152770
655.641	0.0151777
655.719	0.0151261
655.798	0.0152476
655.876	0.0152192
655.954	0.0152108
656.032	0.0151427
656.110	0.0151492
656.188	0.0152951
656.266	0.0152258
656.344	0.0151945
656.423	0.0152616
656.501	0.0151637
656.579	0.0151179
656.657	0.0151157
656.735	0.0151992
656.813	0.0151786
656.891	0.0152368
656.969	0.0151474
657.048	0.0151240
657.126	0.0153006
657.204	0.0152391
657.282	0.0151821
657.360	0.0151320
657.438	0.0152243
657.516	0.0152522
657.594	0.0151173
657.673	0.0152270
657.751	0.0152659
657.829	0.0153111
657.907	0.0153218
657.985	0.0153418
658.063	0.0151701
658.141	0.0152538
658.219	0.0151143
658.298	0.0151762
658.376	0.0151787
658.454	0.0151002
658.532	0.0152654
658.610	0.0153527
658.688	0.0151398
658.766	0.0151730
658.844	0.0152766
658.923	0.0152117
659.001	0.0151104
659.079	0.0152927
659.157	0.0153054
659.235	0.0153122
659.313	0.0151501
659.391	0.0152995
659.469	0.0153242
659.548	0.0152846
659.626	0.0152682
659.704	0.0152116
659.782	0.0152826
659.860	0.0153468
659.938	0.0152601
660.016	0.0152939
660.094	0.0153360
660.173	0.0152676
660.251	0.0152065
660.329	0.0152745
660.407	0.0152409
660.485	0.0151704
660.563	0.0152816
660.641	0.0151437
660.719	0.0150729
660.798	0.0152280
660.876	0.0151601
660.954	0.0152247
661.032	0.0151367
661.110	0.0151962
661.188	0.0152806
661.266	0.0152556
661.344	0.0153738
661.423	0.0152663
661.501	0.0152061
661.579	0.0152512
661.657	0.0152293
661.735	0.0153174
661.813	0.0151836
661.891	0.0150869
661.969	0.0151620
662.048	0.0153020
662.126	0.0152621
662.204	0.0151939
662.282	0.0153878
662.360	0.0152467
662.438	0.0152024
662.516	0.0152036
662.594	0.0153150
662.673	0.0151839
662.751	0.0151646
662.829	0.0153613
662.907	0.0152154
662.985	0.0152255
663.063	0.0152254
663.141	0.0150751
663.219	0.0152322
663.298	0.0151963
663.376	0.0151641
663.454	0.0153552
663.532	0.0152533
663.610	0.0151715
663.688	0.0152462
663.766	0.0152592
663.844	0.0152052
663.923	0.0154008
664.001	0.0152487
664.079	0.0151526
664.157	0.0154433
664.235	0.0153052
664.313	0.0152267
664.391	0.0151561
664.469	0.0152347
664.548	0.0153118
664.626	0.0153253
664.704	0.0152100
664.782	0.0152467
664.860	0.0152628
664.938	0.0151755
665.016	0.0152303
665.094	0.0152962
665.173	0.0152528
665.251	0.0152470
665.329	0.0152251
665.407	0.0152002
665.485	0.0152869
665.563	0.0152541
665.641	0.0152940
665.719	0.0151510
665.798	0.0151511
665.876	0.0152455
665.954	0.0152887
666.032	0.0152257
666.110	0.0151657
666.188	0.0150882
666.266	0.0153214
666.344	0.0152238
666.423	0.0151170
666.501	0.0152865
666.579	0.0152204
666.657	0.0151608
666.735	0.0152562
666.813	0.0153455
666.891	0.0152665
666.969	0.0152489
667.048	0.0152415
667.126	0.0151356
667.204	0.0151747
667.282	0.0151945
667.360	0.0152441
667.438	0.0153786
667.516	0.0152351
667.594	0.0152014
667.673	0.0152323
667.751	0.0151462
667.829	0.0153034
667.907	0.0152484
667.985	0.0152152
668.063	0.0153879
668.141	0.0154005
668.219	0.0152288
668.298	0.0153191
668.376	0.0151751
668.454	0.0151991
668.532	0.0151676
668.610	0.0152169
668.688	0.0152055
668.766	0.0152339
668.844	0.0153210
668.923	0.0152871
669.001	0.0152570
669.079	0.0153281
669.157	0.0152936
669.235	0.0151245
669.313	0.0152496
669.391	0.0152483
669.469	0.0152709
669.548	0.0152652
669.626	0.0152419
669.704	0.0152390
669.782	0.0152030
669.860	0.0153690
669.938	0.0153310
670.016	0.0152986
670.094	0.0152023
670.173	0.0150351
670.251	0.0152366
670.329	0.0153036
670.407	0.0153175
670.485	0.0151631
670.563	0.0152724
670.641	0.0152162
670.719	0.0151976
670.798	0.0152631
670.876	0.0152073
670.954	0.0152213
671.032	0.0152833
671.110	0.0153475
671.188	0.0153075
671.266	0.0151208
671.344	0.0152903
671.423	0.0152699
671.501	0.0152274
671.579	0.0152763
671.657	0.0152069
671.735	0.0151656
671.813	0.0151620
671.891	0.0152225
671.969	0.0151749
672.048	0.0151728
672.126	0.0151850
672.204	0.0152467
672.282	0.0152724
672.360	0.0152106
672.438	0.0151562
672.516	0.0152029
672.594	0.0151998
672.673	0.0153418
672.751	0.0152687
672.829	0.0151742
672.907	0.0152462
672.985	0.0153245
673.063	0.0152360
673.141	0.0153149
673.219	0.0153515
673.298	0.0152486
673.376	0.0152460
673.454	0.0153235
673.532	0.0151635
673.610	0.0152543
673.688	0.0150876
673.766	0.0152860
673.844	0.0151820
673.923	0.0152304
674.001	0.0151745
674.079	0.0151614
674.157	0.0150613
674.235	0.0151365
674.313	0.0151680
674.391	0.0151593
674.469	0.0151660
674.548	0.0152979
674.626	0.0151779
674.704	0.0152025
674.782	0.0152991
674.860	0.0152068
674.938	0.0152802
675.016	0.0152225
675.094	0.0152476
675.173	0.0151987
675.251	0.0153185
675.329	0.0152164
675.407	0.0152461
675.485	0.0153120
675.563	0.0151814
675.641	0.0152136
675.719	0.0150983
675.798	0.0151416
675.876	0.0150897
675.954	0.0153503
676.032	0.0152848
676.110	0.0153061
676.188	0.0152853
676.266	0.0151828
676.344	0.0153128
676.423	0.0152943
676.501	0.0151724
676.579	0.0152999
676.657	0.0152168
676.735	0.0152763
676.813	0.0152180
676.891	0.0152031
676.969	0.0152388
677.048	0.0151588
677.126	0.0152151
677.204	0.0152301
677.282	0.0152004
677.360	0.0151996
677.438	0.0151717
677.516	0.0152985
677.594	0.0151904
677.673	0.0152755
677.751	0.0151855
677.829	0.0151621
677.907	0.0152831
677.985	0.0152253
678.063	0.0153087
678.141	0.0151878
678.219	0.0152168
678.298	0.0151646
678.376	0.0152390
678.454	0.0152927
678.532	0.0153642
678.610	0.0151306
678.688	0.0152238
678.766	0.0153397
678.844	0.0153821
678.923	0.0151612
679.001	0.0151536
679.079	0.0151771
679.157	0.0152490
679.235	0.0153228
679.313	0.0151651
679.391	0.0152023
679.469	0.0152262
679.548	0.0152235
679.626	0.0152493
679.704	0.0151872
679.782	0.0152013
679.860	0.0152949
679.938	0.0151955
680.016	0.0152347
680.094	0.0152428
680.173	0.0150881
680.251	0.0150349
680.329	0.0152870
680.407	0.0151870
680.485	0.0151450
680.563	0.0151736
680.641	0.0153476
680.719	0.0152341
680.798	0.0152315
680.876	0.0153861
680.954	0.0152213
681.032	0.0152255
681.110	0.0153352
681.188	0.0151987
681.266	0.0152416
681.344	0.0152570
681.423	0.0153128
681.501	0.0153674
681.579	0.0152740
681.657	0.0151965
681.735	0.0151852
681.813	0.0151417
681.891	0.0154115
681.969	0.0153657
682.048	0.0152119
682.126	0.0152213
682.204	0.0152254
682.282	0.0152563
682.360	0.0150917
682.438	0.0152345
682.516	0.0151342
682.594	0.0151720
682.673	0.0152458
682.751	0.0151273
682.829	0.0151181
682.907	0.0152238
682.985	0.0152644
683.063	0.0152246
683.141	0.0151013
683.219	0.0151191
683.298	0.0151823
683.376	0.0151472
683.454	0.0152425
683.532	0.0151883
683.610	0.0151954
683.688	0.0153623
683.766	0.0152646
683.844	0.0152538
683.923	0.0153282
684.001	0.0152629
684.079	0.0151704
684.157	0.0152728
684.235	0.0153523
684.313	0.0152729
684.391	0.0151818
684.469	0.0153360
684.548	0.0153941
684.626	0.0153344
684.704	0.0153221
684.782	0.0151840
684.860	0.0151958
684.938	0.0152402
685.016	0.0152051
685.094	0.0151515
685.173	0.0151991
685.251	0.0151722
685.329	0.0151512
685.407	0.0152139
685.485	0.0151234
685.563	0.0151023
685.641	0.0150750
685.719	0.0151353
685.798	0.0151672
685.876	0.0152312
685.954	0.0151722
686.032	0.0153316
686.110	0.0153178
686.188	0.0153227
686.266	0.0154511
686.344	0.0153000
686.423	0.0153423
686.501	0.0154705
686.579	0.0153265
686.657	0.0153200
686.735	0.0151602
686.813	0.0148343
686.891	0.0148296
686.969	0.0146814
687.048	0.0146837
687.126	0.0147124
687.204	0.0147736
687.282	0.0146648
687.360	0.0147284
687.438	0.0148567
687.516	0.0152217
687.594	0.0154108
687.673	0.0155662
687.751	0.0158202
687.829	0.0160827
687.907	0.0163619
687.985	0.0166230
688.063	0.0167838
688.141	0.0169719
688.219	0.0170200
688.298	0.0169250
688.376	0.0166410
688.454	0.0165023
688.532	0.0159827
688.610	0.0154215
688.688	0.0147082
688.766	0.0141578
688.844	0.0134320
688.923	0.0128764
689.001	0.0123482
689.079	0.0119911
689.157	0.0115301
689.235	0.0114942
689.313	0.0116726
689.391	0.0119280
689.469	0.0125121
689.548	0.0132444
689.626	0.0141702
689.704	0.0147989
689.782	0.0157314
689.860	0.0169450
689.938	0.0177887
690.016	0.0186652
690.094	0.0194673
690.173	0.0199015
690.251	0.0202617
690.329	0.0204580
690.407	0.0205453
690.485	0.0204078
690.563	0.0199608
690.641	0.0195924
690.719	0.0190579
690.798	0.0180833
690.876	0.0173855
690.954	0.0162766
691.032	0.0152035
691.110	0.0141407
691.188	0.0129386
691.266	0.0118455
691.344	0.0110807
691.423	0.00991745
691.501	0.00914459
691.579	0.00844971
691.657	0.00784019
691.735	0.00749710
691.813	0.00723511
691.891	0.00733887
691.969	0.00780800
692.048	0.00838188
692.126	0.00939583
692.204	0.0106204
692.282	0.0119353
692.360	0.0132321
692.438	0.0149467
692.516	0.0164811
692.594	0.0182348
692.673	0.0198626
692.751	0.0217975
692.829	0.0236166
692.907	0.0250931
692.985	0.0262274
693.063	0.0271019
693.141	0.0275845
693.219	0.0277238
693.298	0.0273270
693.376	0.0264510
693.454	0.0253705
693.532	0.0237411
693.610	0.0218405
693.688	0.0197545
693.766	0.0173856
693.844	0.0152309
693.923	0.0129565
694.001	0.0106799
694.079	0.00853477
694.157	0.00659508
694.235	0.00492989
694.313	0.00345650
694.391	0.00231987
694.469	0.00142227
694.548	0.000861053
694.626	0.000720520
694.704	0.00101723
694.782	0.00147491
694.860	0.00233215
694.938	0.00350235
695.016	0.00517448
695.094	0.00715668
695.173	0.00937271
695.251	0.0118707
695.329	0.0144690
695.407	0.0172911
695.485	0.0197787
695.563	0.0222211
695.641	0.0246446
695.719	0.0268585
695.798	0.0287973
695.876	0.0304626
695.954	0.0316264
696.032	0.0324901
696.110	0.0328083
696.188	0.0328130
696.266	0.0321523
696.344	0.0311113
696.423	0.0295704
696.501	0.0275042
696.579	0.0254946
696.657	0.0229896
696.735	0.0202843
696.813	0.0173718
696.891	0.0145215
696.969	0.0116396
697.048	0.00856873
697.126	0.00617241
697.204	0.00363876
697.282	0.00179543
697.360	0.000207291
697.438	-0.000861588
697.516	-0.00153488
697.594	-0.00173340
697.673	-0.00146271
697.751	-0.000844574
697.829	-0.00000511169
697.907	0.00108513
697.985	0.00260063
698.063	0.00429306
698.141	0.00609550
698.219	0.00825630
698.298	0.0104752
698.376	0.0127473
698.454	0.0150151
698.532	0.0174248
698.610	0.0195505
698.688	0.0215473
698.766	0.0234596
698.844	0.0252133
698.923	0.0266056
699.001	0.0278761
699.079	0.0287393
699.157	0.0291219
699.235	0.0290713
699.313	0.0286749
699.391	0.0282172
699.469	0.0274088
699.548	0.0263145
699.626	0.0251538
699.704	0.0237283
699.782	0.0223302
699.860	0.0207330
699.938	0.0190372
700.016	0.0172970
700.094	0.0154404
700.173	0.0138396
700.251	0.0123017
700.329	0.0107809
700.407	0.00949272
700.485	0.00849144
700.563	0.00748138
700.641	0.00703995
700.719	0.00679337
700.798	0.00653198
700.876	0.00662369
700.954	0.00677689
701.032	0.00727463
701.110	0.00791161
701.188	0.00867683
701.266	0.00930092
701.344	0.0101484
701.423	0.0109010
701.501	0.0117405
701.579	0.0125571
701.657	0.0133794
701.735	0.0140499
701.813	0.0147636
701.891	0.0152752
701.969	0.0158163
702.048	0.0164198
702.126	0.0167464
702.204	0.0171698
702.282	0.0173911
702.360	0.0177502
702.438	0.0179005
702.516	0.0179030
702.594	0.0180611
702.673	0.0180582
702.751	0.0180045
702.829	0.0177175
702.907	0.0177228
702.985	0.0174091
703.063	0.0170173
703.141	0.0167068
703.219	0.0166311
703.298	0.0164901
703.376	0.0161815
703.454	0.0163425
703.532	0.0162408
703.610	0.0164760
703.688	0.0165604
703.766	0.0165518
703.844	0.0167108
703.923	0.0168136
704.001	0.0169362
704.079	0.0168254
704.157	0.0168589
704.235	0.0167610
704.313	0.0166076
704.391	0.0163823
704.469	0.0161916
704.548	0.0158967
704.626	0.0153772
704.704	0.0150763
704.782	0.0149492
704.860	0.0146298
704.938	0.0142236
705.016	0.0139989
705.094	0.0137369
705.173	0.0134756
705.251	0.0133383
705.329	0.0132760
705.407	0.0131639
705.485	0.0131406
705.563	0.0131085
705.641	0.0130920
705.719	0.0131917
705.798	0.0130537
705.876	0.0132874
705.954	0.0133131
706.032	0.0133913
706.110	0.0134978
706.188	0.0136992
706.266	0.0139216
706.344	0.0142518
706.423	0.0145142
706.501	0.0146286
706.579	0.0149377
706.657	0.0150533
706.735	0.0152912
706.813	0.0155672
706.891	0.0155213
706.969	0.0156736
707.048	0.0156789
707.126	0.0154686
707.204	0.0153863
707.282	0.0153578
707.360	0.0152081
707.438	0.0151303
707.516	0.0149484
707.594	0.0148714
707.673	0.0147037
707.751	0.0146831
707.829	0.0146735
707.907	0.0148027
707.985	0.0147911
708.063	0.0150719
708.141	0.0153416
708.219	0.0155395
708.298	0.0156248
708.376	0.0160314
708.454	0.0160545
708.532	0.0162255
708.610	0.0164964
708.688	0.0166398
708.766	0.0167179
708.844	0.0171951
708.923	0.0172178
709.001	0.0172735
709.079	0.0174387
709.157	0.0174002
709.235	0.0175684
709.313	0.0176434
709.391	0.0176025
709.469	0.0175188
709.548	0.0172378
709.626	0.0170795
709.704	0.0168978
709.782	0.0166872
709.860	0.0163128
709.938	0.0159546
710.016	0.0157491
710.094	0.0155692
710.173	0.0151807
710.251	0.0150156
710.329	0.0146453
710.407	0.0143745
710.485	0.0142570
710.563	0.0140312
710.641	0.0138963
710.719	0.0135898
710.798	0.0132756
710.876	0.0130930
710.954	0.0127966
711.032	0.0126158
711.110	0.0121930
711.188	0.0120071
711.266	0.0119870
711.344	0.0118673
711.423	0.0117293
711.501	0.0117442
711.579	0.0118670
711.657	0.0120487
711.735	0.0123347
711.813	0.0126206
711.891	0.0127768
711.969	0.0132218
712.048	0.0136180
712.126	0.0140887
712.204	0.0144318
712.282	0.0148689
712.360	0.0152117
712.438	0.0155973
712.516	0.0160428
712.594	0.0163869
712.673	0.0168204
712.751	0.0170498
712.829	0.0172703
712.907	0.0176492
712.985	0.0179485
713.063	0.0179921
713.141	0.0181490
713.219	0.0183559
713.298	0.0184206
713.376	0.0183212
713.454	0.0182213
713.532	0.0181481
713.610	0.0179959
713.688	0.0178179
713.766	0.0176829
713.844	0.0172427
713.923	0.0171544
714.001	0.0168050
714.079	0.0166296
714.157	0.0163767
714.235	0.0160757
714.313	0.0157281
714.391	0.0153773
714.469	0.0153606
714.548	0.0150299
714.626	0.0149137
714.704	0.0146423
714.782	0.0144015
714.860	0.0143145
714.938	0.0142187
715.016	0.0140492
715.094	0.0139895
715.173	0.0138142
715.251	0.0137415
715.329	0.0138022
715.407	0.0137515
715.485	0.0138256
715.563	0.0138434
715.641	0.0138234
715.719	0.0138454
715.798	0.0139033
715.876	0.0140940
715.954	0.0141179
716.032	0.0143056
716.110	0.0142921
716.188	0.0143428
716.266	0.0143758
716.344	0.0145036
716.423	0.0144456
716.501	0.0144990
716.579	0.0144246
716.657	0.0145343
716.735	0.0144526
716.813	0.0144765
716.891	0.0144154
716.969	0.0143567
717.048	0.0143759
717.126	0.0143894
717.204	0.0144682
717.282	0.0145505
717.360	0.0144769
717.438	0.0145098
717.516	0.0147147
717.594	0.0147762
717.673	0.0148982
717.751	0.0149341
717.829	0.0150389
717.907	0.0152546
717.985	0.0152336
718.063	0.0154117
718.141	0.0155130
718.219	0.0157311
718.298	0.0158305
718.376	0.0160497
718.454	0.0161239
718.532	0.0161477
718.610	0.0164268
718.688	0.0165056
718.766	0.0165888
718.844	0.0164655
718.923	0.0166706
719.001	0.0167456
719.079	0.0166864
719.157	0.0167796
719.235	0.0167361
719.313	0.0169397
719.391	0.0168156
719.469	0.0167702
719.548	0.0167463
719.626	0.0167182
719.704	0.0169077
719.782	0.0166879
719.860	0.0165915
719.938	0.0166221
720.016	0.0164458
720.094	0.0163896
720.173	0.0161986
720.251	0.0159772
720.329	0.0158161
720.407	0.0154935
720.485	0.0152220
720.563	0.0151817
720.641	0.0149054
720.719	0.0146875
720.798	0.0145337
720.876	0.0143416
720.954	0.0141885
721.032	0.0140820
721.110	0.0137999
721.188	0.0138176
721.266	0.0136670
721.344	0.0135992
721.423	0.0136512
721.501	0.0135719
721.579	0.0136178
721.657	0.0134405
721.735	0.0135921
721.813	0.0136466
721.891	0.0135709
721.969	0.0135667
722.048	0.0135873
722.126	0.0137191
722.204	0.0138857
722.282	0.0138392
722.360	0.0138553
722.438	0.0139275
722.516	0.0140428
722.594	0.0140076
722.673	0.0143637
722.751	0.0142081
722.829	0.0144907
722.907	0.0147312
722.985	0.0148974
723.063	0.0152180
723.141	0.0155271
723.219	0.0156322
723.298	0.0156948
723.376	0.0161028
723.454	0.0163875
723.532	0.0165362
723.610	0.0165321
723.688	0.0165140
723.766	0.0166703
723.844	0.0168316
723.923	0.0168865
724.001	0.0170385
724.079	0.0170203
724.157	0.0169926
724.235	0.0169332
724.313	0.0169144
724.391	0.0168192
724.469	0.0168471
724.548	0.0165548
724.626	0.0164529
724.704	0.0164832
724.782	0.0163062
724.860	0.0159718
724.938	0.0159462
725.016	0.0157664
725.094	0.0155558
725.173	0.0154951
725.251	0.0154342
725.329	0.0152902
725.407	0.0151042
725.485	0.0151554
725.563	0.0151670
725.641	0.0151177
725.719	0.0151592
725.798	0.0151701
725.876	0.0151049
725.954	0.0150937
726.032	0.0152495
726.110	0.0151118
726.188	0.0151505
726.266	0.0150984
726.344	0.0149713
726.423	0.0150268
726.501	0.0149838
726.579	0.0148952
726.657	0.0147739
726.735	0.0146461
726.813	0.0145100
726.891	0.0142913
726.969	0.0142730
727.048	0.0141869
727.126	0.0139153
727.204	0.0139349
727.282	0.0137606
727.360	0.0136821
727.438	0.0137000
727.516	0.0138158
727.594	0.0138801
727.673	0.0139117
727.751	0.0139034
727.829	0.0141335
727.907	0.0141962
727.985	0.0143072
728.063	0.0145520
728.141	0.0146806
728.219	0.0148255
728.298	0.0149799
728.376	0.0151805
728.454	0.0152119
728.532	0.0151995
728.610	0.0153074
728.688	0.0154413
728.766	0.0153655
728.844	0.0155392
728.923	0.0154873
729.001	0.0157078
729.079	0.0155816
729.157	0.0156629
729.235	0.0156686
729.313	0.0155837
729.391	0.0158609
729.469	0.0159283
729.548	0.0158218
729.626	0.0160296
729.704	0.0162350
729.782	0.0161539
729.860	0.0161721
729.938	0.0163018
730.016	0.0164347
730.094	0.0163921
730.173	0.0164103
730.251	0.0164803
730.329	0.0164365
730.407	0.0164263
730.485	0.0163086
730.563	0.0163775
730.641	0.0163548
730.719	0.0163776
730.798	0.0161924
730.876	0.0160869
730.954	0.0160858
731.032	0.0158545
731.110	0.0157683
731.188	0.0157780
731.266	0.0155994
731.344	0.0154375
731.423	0.0152627
731.501	0.0152682
731.579	0.0152135
731.657	0.0149940
731.735	0.0148104
731.813	0.0149204
731.891	0.0148710
731.969	0.0146574
732.048	0.0144787
732.126	0.0145637
732.204	0.0143044
732.282	0.0142422
732.360	0.0141128
732.438	0.0141409
732.516	0.0141703
732.594	0.0139668
732.673	0.0139896
732.751	0.0138638
732.829	0.0138455
732.907	0.0139357
732.985	0.0139423
733.063	0.0140006
733.141	0.0141319
733.219	0.0141074
733.298	0.0141232
733.376	0.0142527
733.454	0.0143882
733.532	0.0144748
733.610	0.0144863
733.688	0.0146452
733.766	0.0148270
733.844	0.0151263
733.923	0.0153140
734.001	0.0153908
734.079	0.0155634
734.157	0.0156422
734.235	0.0157854
734.313	0.0158815
734.391	0.0159168
734.469	0.0160756
734.548	0.0159211
734.626	0.0159959
734.704	0.0158708
734.782	0.0158601
734.860	0.0159486
734.938	0.0158517
735.016	0.0158836
735.094	0.0159151
735.173	0.0158624
735.251	0.0158148
735.329	0.0159187
735.407	0.0156062
735.485	0.0156408
735.563	0.0156937
735.641	0.0156180
735.719	0.0153208
735.798	0.0153999
735.876	0.0153556
735.954	0.0152719
736.032	0.0151622
736.110	0.0150392
736.188	0.0150652
736.266	0.0151550
736.344	0.0151051
736.423	0.0152308
736.501	0.0152739
736.579	0.0152018
736.657	0.0153335
736.735	0.0154118
736.813	0.0154864
736.891	0.0153967
736.969	0.0154743
737.048	0.0153686
737.126	0.0154738
737.204	0.0154390
737.282	0.0153577
737.360	0.0151624
737.438	0.0152341
737.516	0.0150350
737.594	0.0149287
737.673	0.0147990
737.751	0.0147337
737.829	0.0145988
737.907	0.0145333
737.985	0.0144776
738.063	0.0144478
738.141	0.0145499
738.219	0.0144678
738.298	0.0143409
738.376	0.0144908
738.454	0.0145718
738.532	0.0144594
738.610	0.0146186
738.688	0.0147040
738.766	0.0147681
738.844	0.0148259
738.923	0.0148857
739.001	0.0149994
739.079	0.0150648
739.157	0.0151984
739.235	0.0151841
739.313	0.0153400
739.391	0.0154374
739.469	0.0155025
739.548	0.0153607
739.626	0.0154597
739.704	0.0154928
739.782	0.0156821
739.860	0.0155097
739.938	0.0152856
740.016	0.0154154
740.094	0.0154462
740.173	0.0153615
740.251	0.0155309
740.329	0.0151871
740.407	0.0154169
740.485	0.0154828
740.563	0.0153537
740.641	0.0154467
740.719	0.0154050
740.798	0.0154276
740.876	0.0155611
740.954	0.0153499
741.032	0.0152063
741.110	0.0151411
741.188	0.0150740
741.266	0.0150382
741.344	0.0150870
741.423	0.0150259
741.501	0.0149419
741.579	0.0150678
741.657	0.0151152
741.735	0.0152093
741.813	0.0150488
741.891	0.0151797
741.969	0.0150364
742.048	0.0151311
742.126	0.0152421
742.204	0.0151798
742.282	0.0151669
742.360	0.0150977
742.438	0.0151038
742.516	0.0153099
742.594	0.0151583
742.673	0.0151357
742.751	0.0152419
742.829	0.0152193
742.907	0.0152808
742.985	0.0152015
743.063	0.0152515
743.141	0.0153600
743.219	0.0152585
743.298	0.0153636
743.376	0.0150304
743.454	0.0150584
743.532	0.0150881
743.610	0.0150022
743.688	0.0148276
743.766	0.0149667
743.844	0.0149802
743.923	0.0150403
744.001	0.0150975
744.079	0.0149562
744.157	0.0152366
744.235	0.0151946
744.313	0.0152474
744.391	0.0154941
744.469	0.0155329
744.548	0.0156316
744.626	0.0155455
744.704	0.0158245
744.782	0.0156631
744.860	0.0158269
744.938	0.0159321
745.016	0.0158768
745.094	0.0158431
745.173	0.0158374
745.251	0.0158357
745.329	0.0157529
745.407	0.0156361
745.485	0.0156753
745.563	0.0154559
745.641	0.0152026
745.719	0.0153611
745.798	0.0151397
745.876	0.0148359
745.954	0.0149850
746.032	0.0149103
746.110	0.0147554
746.188	0.0147007
746.266	0.0147070
746.344	0.0145962
746.423	0.0144603
746.501	0.0145278
746.579	0.0145998
746.657	0.0145289
746.735	0.0146217
746.813	0.0147400
746.891	0.0146793
746.969	0.0149028
747.048	0.0150426
747.126	0.0149452
747.204	0.0150063
747.282	0.0150146
747.360	0.0150928
747.438	0.0152049
747.516	0.0151508
747.594	0.0152113
747.673	0.0152733
747.751	0.0151913
747.829	0.0151153
747.907	0.0152559
747.985	0.0151642
748.063	0.0151099
748.141	0.0150894
748.219	0.0151511
748.298	0.0152323
748.376	0.0152623
748.454	0.0152832
748.532	0.0151458
748.610	0.0152265
748.688	0.0153557
748.766	0.0153241
748.844	0.0155320
748.923	0.0155704
749.001	0.0154858
749.079	0.0157398
749.157	0.0155987
749.235	0.0157036
749.313	0.0156523
749.391	0.0156726
749.469	0.0157751
749.548	0.0158385
749.626	0.0158333
749.704	0.0157360
749.782	0.0156867
749.860	0.0155641
749.938	0.0156926
750.016	0.0154997
750.094	0.0154085
750.173	0.0152807
750.251	0.0151463
750.329	0.0149646
750.407	0.0149620
750.485	0.0148336
750.563	0.0149719
750.641	0.0148260
750.719	0.0147311
750.798	0.0147976
750.876	0.0147627
750.954	0.0147705
751.032	0.0149477
751.110	0.0149735
751.188	0.0150713
751.266	0.0150519
751.344	0.0151501
751.423	0.0151323
751.501	0.0152544
751.579	0.0153544
751.657	0.0155166
751.735	0.0154800
751.813	0.0154984
751.891	0.0156326
751.969	0.0155767
752.048	0.0156706
752.126	0.0156329
752.204	0.0156654
752.282	0.0157290
752.360	0.0156475
752.438	0.0156567
752.516	0.0156886
752.594	0.0153625
752.673	0.0153232
752.751	0.0154243
752.829	0.0155780
752.907	0.0153958
752.985	0.0152537
753.063	0.0151055
753.141	0.0151584
753.219	0.0151356
753.298	0.0150383
753.376	0.0150007
753.454	0.0148859
753.532	0.0150547
753.610	0.0148383
753.688	0.0148104
753.766	0.0148133
753.844	0.0148998
753.923	0.0149367
754.001	0.0147480
754.079	0.0148326
754.157	0.0148479
754.235	0.0148823
754.313	0.0148898
754.391	0.0148614
754.469	0.0148869
754.548	0.0150261
754.626	0.0149797
754.704	0.0150436
754.782	0.0149557
754.860	0.0151798
754.938	0.0152295
755.016	0.0153058
755.094	0.0153681
755.173	0.0153291
755.251	0.0152827
755.329	0.0152557
755.407	0.0153036
755.485	0.0154927
755.563	0.0154192
755.641	0.0153043
755.719	0.0154900
755.798	0.0155628
755.876	0.0155345
755.954	0.0154293
756.032	0.0153941
756.110	0.0153608
756.188	0.0153926
756.266	0.0155416
756.344	0.0154925
756.423	0.0153678
756.501	0.0152935
756.579	0.0153522
756.657	0.0153616
756.735	0.0154467
756.813	0.0152676
756.891	0.0152840
756.969	0.0154752
757.048	0.0154322
757.126	0.0153527
757.204	0.0154682
757.282	0.0155450
757.360	0.0157478
757.438	0.0155259
757.516	0.0156549
757.594	0.0157088
757.673	0.0157825
757.751	0.0157665
757.829	0.0156801
757.907	0.0157186
757.985	0.0156856
758.063	0.0155950
758.141	0.0156886
758.219	0.0156322
758.298	0.0155495
758.376	0.0154693
758.454	0.0152766
758.532	0.0152686
758.610	0.0150778
758.688	0.0151766
758.766	0.0149191
758.844	0.0148911
758.923	0.0148931
759.001	0.0149423
759.079	0.0148257
759.157	0.0147697
759.235	0.0147977
759.313	0.0147940
759.391	0.0148156
759.469	0.0146866
759.548	0.0147377
759.626	0.0147629
759.704	0.0147287
759.782	0.0147890
759.860	0.0149070
759.938	0.0149228
760.016	0.0149510
760.094	0.0150672
760.173	0.0149657
760.251	0.0150073
760.329	0.0151528
760.407	0.0151242
760.485	0.0151215
760.563	0.0151231
760.641	0.0150922
760.719	0.0151099
760.798	0.0149900
760.876	0.0149610
760.954	0.0150140
761.032	0.0150286
761.110	0.0149834
761.188	0.0147903
761.266	0.0146217
761.344	0.0149276
761.423	0.0148018
761.501	0.0148071
761.579	0.0147563
761.657	0.0148461
761.735	0.0148849
761.813	0.0147887
761.891	0.0150758
761.969	0.0150249
762.048	0.0150971
762.126	0.0153021
762.204	0.0153362
762.282	0.0154998
762.360	0.0155800
762.438	0.0157745
762.516	0.0157691
762.594	0.0160008
762.673	0.0160363
762.751	0.0159403
762.829	0.0160877
762.907	0.0162508
762.985	0.0163412
763.063	0.0163273
763.141	0.0161940
763.219	0.0161909
763.298	0.0162705
763.376	0.0163238
763.454	0.0161124
763.532	0.0160979
763.610	0.0159017
763.688	0.0158568
763.766	0.0157853
763.844	0.0156876
763.923	0.0154131
764.001	0.0153777
764.079	0.0154447
764.157	0.0152157
764.235	0.0152567
764.313	0.0149548
764.391	0.0149149
764.469	0.0149627
764.548	0.0148759
764.626	0.0149039
764.704	0.0148844
764.782	0.0146473
764.860	0.0145953
764.938	0.0147179
765.016	0.0145259
765.094	0.0144791
765.173	0.0146888
765.251	0.0145465
765.329	0.0145460
765.407	0.0144590
765.485	0.0144220
765.563	0.0146108
765.641	0.0145719
765.719	0.0146928
765.798	0.0147515
765.876	0.0148223
765.954	0.0147530
766.032	0.0147192
766.110	0.0147915
766.188	0.0149155
766.266	0.0148254
766.344	0.0147910
766.423	0.0148880
766.501	0.0149958
766.579	0.0150626
766.657	0.0151086
766.735	0.0150847
766.813	0.0150869
766.891	0.0150555
766.969	0.0152487
767.048	0.0151495
767.126	0.0151523
767.204	0.0152431
767.282	0.0153477
767.360	0.0152390
767.438	0.0151802
767.516	0.0151209
767.594	0.0151289
767.673	0.0152544
767.751	0.0152931
767.829	0.0152711
767.907	0.0151525
767.985	0.0150982
768.063	0.0151861
768.141	0.0152608
768.219	0.0152312
768.298	0.0152118
768.376	0.0155331
768.454	0.0156234
768.532	0.0155518
768.610	0.0155331
768.688	0.0157077
768.766	0.0157057
768.844	0.0158894
768.923	0.0158811
769.001	0.0159064
769.079	0.0158679
769.157	0.0160596
769.235	0.0160099
769.313	0.0159360
769.391	0.0159106
769.469	0.0158064
769.548	0.0158907
769.626	0.0157198
769.704	0.0156634
769.782	0.0158112
769.860	0.0156316
769.938	0.0156400
770.016	0.0155266
770.094	0.0154206
770.173	0.0152686
770.251	0.0151444
770.329	0.0151735
770.407	0.0152226
770.485	0.0151508
770.563	0.0150278
770.641	0.0149960
770.719	0.0147811
770.798	0.0148126
770.876	0.0147298
770.954	0.0146005
771.032	0.0145998
771.110	0.0146072
771.188	0.0147926
771.266	0.0146303
771.344	0.0145202
771.423	0.0146099
771.501	0.0147060
771.579	0.0147011
771.657	0.0147789
771.735	0.0147954
771.813	0.0147713
771.891	0.0149406
771.969	0.0150586
772.048	0.0150253
772.126	0.0153415
772.204	0.0152238
772.282	0.0153532
772.360	0.0153838
772.438	0.0154149
772.516	0.0155262
772.594	0.0154750
772.673	0.0154170
772.751	0.0155173
772.829	0.0155765
772.907	0.0153324
772.985	0.0153311
773.063	0.0153096
773.141	0.0151715
773.219	0.0152844
773.298	0.0151323
773.376	0.0151018
773.454	0.0149635
773.532	0.0150830
773.610	0.0148648
773.688	0.0149998
773.766	0.0148914
773.844	0.0149345
773.923	0.0148626
774.001	0.0147616
774.079	0.0147169
774.157	0.0148293
774.235	0.0148695
774.313	0.0150866
774.391	0.0149233
774.469	0.0148790
774.548	0.0149940
774.626	0.0150803
774.704	0.0151809
774.782	0.0152188
774.860	0.0153414
774.938	0.0153286
775.016	0.0154807
775.094	0.0155870
775.173	0.0155468
775.251	0.0155191
775.329	0.0158426
775.407	0.0157495
775.485	0.0157458
775.563	0.0158564
775.641	0.0158997
775.719	0.0158797
775.798	0.0158760
775.876	0.0158440
775.954	0.0157763
776.032	0.0158623
776.110	0.0157442
776.188	0.0157640
776.266	0.0155087
776.344	0.0154667
776.423	0.0153956
776.501	0.0153416
776.579	0.0153374
776.657	0.0151451
776.735	0.0151837
776.813	0.0152528
776.891	0.0150204
776.969	0.0148241
777.048	0.0149110
777.126	0.0148305
777.204	0.0148331
777.282	0.0148267
777.360	0.0147908
777.438	0.0148502
777.516	0.0147631
777.594	0.0148711
777.673	0.0147612
777.751	0.0147598
777.829	0.0148103
777.907	0.0149565
777.985	0.0148917
778.063	0.0149979
778.141	0.0149837
778.219	0.0149629
778.298	0.0150700
778.376	0.0150738
778.454	0.0152187
778.532	0.0151034
778.610	0.0153042
778.688	0.0151688
778.766	0.0152357
778.844	0.0154270
778.923	0.0152602
779.001	0.0153061
779.079	0.0152917
779.157	0.0153593
779.235	0.0151700
779.313	0.0153179
779.391	0.0153956
779.469	0.0153798
779.548	0.0152387
779.626	0.0153019
779.704	0.0152518
779.782	0.0151947
779.860	0.0153403
779.938	0.0151972
780.016	0.0152204
780.094	0.0152392
780.173	0.0151909
780.251	0.0152322
780.329	0.0152457
780.407	0.0152414
780.485	0.0152894
780.563	0.0154279
780.641	0.0151754
780.719	0.0153551
780.798	0.0153875
780.876	0.0151991
780.954	0.0151687
781.032	0.0153762
781.110	0.0152840
781.188	0.0151987
781.266	0.0153004
781.344	0.0152663
781.423	0.0153001
781.501	0.0151884
781.579	0.0151482
781.657	0.0151807
781.735	0.0150377
781.813	0.0151379
781.891	0.0151619
781.969	0.0151588
782.048	0.0150287
782.126	0.0152351
782.204	0.0153387
782.282	0.0152689
782.360	0.0152242
782.438	0.0153117
782.516	0.0154173
782.594	0.0154447
782.673	0.0155008
782.751	0.0156426
782.829	0.0157291
782.907	0.0156736
782.985	0.0156194
783.063	0.0156147
783.141	0.0156247
783.219	0.0156743
783.298	0.0156609
783.376	0.0155155
783.454	0.0155803
783.532	0.0154782
783.610	0.0154778
783.688	0.0154279
783.766	0.0153299
783.844	0.0151529
783.923	0.0151841
784.001	0.0150996
784.079	0.0151749
784.157	0.0150181
784.235	0.0149309
784.313	0.0150018
784.391	0.0149819
784.469	0.0149014
784.548	0.0149339
784.626	0.0148543
784.704	0.0149136
784.782	0.0148582
784.860	0.0148341
784.938	0.0148566
785.016	0.0149506
785.094	0.0148499
785.173	0.0149703
785.251	0.0149294
785.329	0.0149459
785.407	0.0149398
785.485	0.0151263
785.563	0.0151098
785.641	0.0150959
785.719	0.0149818
785.798	0.0151359
785.876	0.0152221
785.954	0.0150993
786.032	0.0152476
786.110	0.0152581
786.188	0.0153051
786.266	0.0152996
786.344	0.0152158
786.423	0.0154354
786.501	0.0153608
786.579	0.0154544
786.657	0.0156987
786.735	0.0155933
786.813	0.0156260
786.891	0.0156626
786.969	0.0157313
787.048	0.0158121
787.126	0.0157794
787.204	0.0156831
787.282	0.0157597
787.360	0.0156525
787.438	0.0156557
787.516	0.0154442
787.594	0.0154823
787.673	0.0153618
787.751	0.0152190
787.829	0.0151041
787.907	0.0149117
787.985	0.0148440
788.063	0.0147853
788.141	0.0147529
788.219	0.0146455
788.298	0.0147211
788.376	0.0145168
788.454	0.0145261
788.532	0.0144662
788.610	0.0144763
788.688	0.0146725
788.766	0.0145818
788.844	0.0147195
788.923	0.0150294
789.001	0.0150777
789.079	0.0153789
789.157	0.0154917
789.235	0.0156123
789.313	0.0159262
789.391	0.0161395
789.469	0.0161203
789.548	0.0163306
789.626	0.0164549
789.704	0.0164075
789.782	0.0164616
789.860	0.0165582
789.938	0.0164993
790.016	0.0163226
790.094	0.0161755
790.173	0.0159663
790.251	0.0159633
790.329	0.0158813
790.407	0.0153709
790.485	0.0152242
790.563	0.0148695
790.641	0.0147752
790.719	0.0145202
790.798	0.0143079
790.876	0.0142870
790.954	0.0139924
791.032	0.0139703
791.110	0.0138240
791.188	0.0137837
791.266	0.0135884
791.344	0.0136795
791.423	0.0137315
791.501	0.0136769
791.579	0.0139617
791.657	0.0140855
791.735	0.0141575
791.813	0.0143826
791.891	0.0146365
791.969	0.0147661
792.048	0.0149831
792.126	0.0154857
792.204	0.0156757
792.282	0.0158086
792.360	0.0162928
792.438	0.0164697
792.516	0.0165282
792.594	0.0170140
792.673	0.0169401
792.751	0.0170717
792.829	0.0171377
792.907	0.0171036
792.985	0.0170999
793.063	0.0169634
793.141	0.0167313
793.219	0.0166216
793.298	0.0164590
793.376	0.0160950
793.454	0.0158464
793.532	0.0154774
793.610	0.0152193
793.688	0.0150444
793.766	0.0147020
793.844	0.0145633
793.923	0.0141763
794.001	0.0139680
794.079	0.0138249
794.157	0.0137344
794.235	0.0136466
794.313	0.0134679
794.391	0.0134544
794.469	0.0135149
794.548	0.0135696
794.626	0.0137120
794.704	0.0138030
794.782	0.0138881
794.860	0.0140924
794.938	0.0142041
795.016	0.0144814
795.094	0.0146857
795.173	0.0149651
795.251	0.0153343
795.329	0.0156509
795.407	0.0156956
795.485	0.0159742
795.563	0.0161688
795.641	0.0164032
795.719	0.0165440
795.798	0.0165195
795.876	0.0166217
795.954	0.0167453
796.032	0.0168146
796.110	0.0167635
796.188	0.0166708
796.266	0.0167125
796.344	0.0166037
796.423	0.0163793
796.501	0.0161983
796.579	0.0158808
796.657	0.0158786
796.735	0.0157191
796.813	0.0153075
796.891	0.0152171
796.969	0.0149301
797.048	0.0148541
797.126	0.0147466
797.204	0.0144743
797.282	0.0143265
797.360	0.0143668
797.438	0.0141759
797.516	0.0141445
797.594	0.0140049
797.673	0.0138453
797.751	0.0140082
797.829	0.0139895
797.907	0.0141207
797.985	0.0140645
798.063	0.0140745
798.141	0.0141750
798.219	0.0143732
798.298	0.0144241
798.376	0.0145617
798.454	0.0145414
798.532	0.0148078
798.610	0.0149557
798.688	0.0150159
798.766	0.0151811
798.844	0.0152567
798.923	0.0155332
799.001	0.0155965
799.079	0.0158006
799.157	0.0158375
799.235	0.0158724
799.313	0.0161682
799.391	0.0159003
799.469	0.0159982
799.548	0.0159755
799.626	0.0161284
799.704	0.0161049
799.782	0.0159574
799.860	0.0159851
799.938	0.0160233
800.016	0.0159322
800.094	0.0157218
800.173	0.0157262
800.251	0.0156536
800.329	0.0153433
800.407	0.0154343
800.485	0.0153316
800.563	0.0153252
800.641	0.0152198
800.719	0.0152600
800.798	0.0151019
800.876	0.0150411
800.954	0.0151195
801.032	0.0149635
801.110	0.0149039
801.188	0.0149487
801.266	0.0148134
801.344	0.0148135
801.423	0.0149619
801.501	0.0149897
801.579	0.0150439
801.657	0.0149258
801.735	0.0149955
801.813	0.0149351
801.891	0.0150379
801.969	0.0151140
802.048	0.0151062
802.126	0.0150372
802.204	0.0150539
802.282	0.0151433
802.360	0.0150519
802.438	0.0148698
802.516	0.0150906
802.594	0.0150923
802.673	0.0151016
802.751	0.0150454
802.829	0.0151562
802.907	0.0152032
802.985	0.0151989
803.063	0.0151326
803.141	0.0151518
803.219	0.0151038
803.298	0.0151176
803.376	0.0152826
803.454	0.0154253
803.532	0.0151588
803.610	0.0150974
803.688	0.0152058
803.766	0.0151347
803.844	0.0152053
803.923	0.0153018
804.001	0.0150155
804.079	0.0150497
804.157	0.0151730
804.235	0.0151941
804.313	0.0151127
804.391	0.0151008
804.469	0.0150945
804.548	0.0149958
804.626	0.0150383
804.704	0.0150980
804.782	0.0152441
804.860	0.0153027
804.938	0.0153577
805.016	0.0153832
805.094	0.0154643
805.173	0.0155772
805.251	0.0155672
805.329	0.0155511
805.407	0.0157543
805.485	0.0157789
805.563	0.0157291
805.641	0.0158241
805.719	0.0159486
805.798	0.0158717
805.876	0.0158810
805.954	0.0159615
806.032	0.0157739
806.110	0.0156335
806.188	0.0158839
806.266	0.0157908
806.344	0.0156622
806.423	0.0155729
806.501	0.0155310
806.579	0.0154461
806.657	0.0154141
806.735	0.0153806
806.813	0.0150942
806.891	0.0149467
806.969	0.0149778
807.048	0.0148544
807.126	0.0146754
807.204	0.0146722
807.282	0.0146023
807.360	0.0146238
807.438	0.0145316
807.516	0.0147438
807.594	0.0145453
807.673	0.0143420
807.751	0.0144916
807.829	0.0145460
807.907	0.0145658
807.985	0.0147753
808.063	0.0149113
808.141	0.0148142
808.219	0.0149926
808.298	0.0149010
808.376	0.0151111
808.454	0.0150831
808.532	0.0151631
808.610	0.0152165
808.688	0.0152340
808.766	0.0152569
808.844	0.0153201
808.923	0.0152307
809.001	0.0152387
809.079	0.0152563
809.157	0.0152704
809.235	0.0153236
809.313	0.0155328
809.391	0.0153294
809.469	0.0154374
809.548	0.0155553
809.626	0.0154948
809.704	0.0156085
809.782	0.0155860
809.860	0.0154548
809.938	0.0154612
810.016	0.0156297
810.094	0.0156964
810.173	0.0155619
810.251	0.0155564
810.329	0.0156381
810.407	0.0155243
810.485	0.0154759
810.563	0.0155766
810.641	0.0154570
810.719	0.0153407
810.798	0.0154239
810.876	0.0154774
810.954	0.0154333
811.032	0.0154599
811.110	0.0151712
811.188	0.0152921
811.266	0.0153188
811.344	0.0152163
811.423	0.0150459
811.501	0.0150828
811.579	0.0151112
811.657	0.0151474
811.735	0.0150627
811.813	0.0150650
811.891	0.0150575
811.969	0.0150256
812.048	0.0149521
812.126	0.0150419
812.204	0.0151301
812.282	0.0150911
812.360	0.0148933
812.438	0.0149940
812.516	0.0149642
812.594	0.0151251
812.673	0.0151128
812.751	0.0151868
812.829	0.0152530
812.907	0.0153374
812.985	0.0153130
813.063	0.0153444
813.141	0.0154253
813.219	0.0153039
813.298	0.0154278
813.376	0.0155708
813.454	0.0154342
813.532	0.0155060
813.610	0.0154854
813.688	0.0154852
813.766	0.0154391
813.844	0.0154667
813.923	0.0155008
814.001	0.0154258
814.079	0.0153477
814.157	0.0153631
814.235	0.0153117
814.313	0.0152940
814.391	0.0151646
814.469	0.0152914
814.548	0.0152775
814.626	0.0151635
814.704	0.0151950
814.782	0.0152248
814.860	0.0152932
814.938	0.0152167
815.016	0.0152635
815.094	0.0152342
815.173	0.0152937
815.251	0.0151797
815.329	0.0152416
815.407	0.0152723
815.485	0.0151746
815.563	0.0152335
815.641	0.0151871
815.719	0.0152815
815.798	0.0153158
815.876	0.0151979
815.954	0.0154355
816.032	0.0153528
816.110	0.0152519
816.188	0.0153851
816.266	0.0153873
816.344	0.0152780
816.423	0.0153593
816.501	0.0155762
816.579	0.0155255
816.657	0.0155768
816.735	0.0155725
816.813	0.0154913
816.891	0.0155473
816.969	0.0153172
817.048	0.0152190
817.126	0.0155396
817.204	0.0153027
817.282	0.0153815
817.360	0.0152432
817.438	0.0154337
817.516	0.0153879
817.594	0.0151426
817.673	0.0152196
817.751	0.0151425
817.829	0.0150811
817.907	0.0151484
817.985	0.0151204
818.063	0.0150934
818.141	0.0151328
818.219	0.0147765
818.298	0.0148621
818.376	0.0148705
818.454	0.0146320
818.532	0.0147532
818.610	0.0147030
818.688	0.0148396
818.766	0.0146893
818.844	0.0146902
818.923	0.0149099
819.001	0.0148693
819.079	0.0149474
819.157	0.0151221
819.235	0.0151624
819.313	0.0153288
819.391	0.0154205
819.469	0.0153802
819.548	0.0154752
819.626	0.0155885
819.704	0.0156701
819.782	0.0158218
819.860	0.0157893
819.938	0.0159045
820.016	0.0158714
820.094	0.0159468
820.173	0.0159739
820.251	0.0159605
820.329	0.0157722
820.407	0.0156683
820.485	0.0156612
820.563	0.0158086
820.641	0.0157761
820.719	0.0156408
820.798	0.0155669
820.876	0.0155016
820.954	0.0154212
821.032	0.0153709
821.110	0.0153425
821.188	0.0152766
821.266	0.0151314
821.344	0.0150633
821.423	0.0150014
821.501	0.0151101
821.579	0.0149513
821.657	0.0148500
821.735	0.0148781
821.813	0.0148174
821.891	0.0148091
821.969	0.0148723
822.048	0.0148457
822.126	0.0148273
822.204	0.0149980
822.282	0.0149034
822.360	0.0149978
822.438	0.0151097
822.516	0.0151058
822.594	0.0150368
822.673	0.0151625
822.751	0.0151078
822.829	0.0152197
822.907	0.0152750
822.985	0.0152853
823.063	0.0153440
823.141	0.0153446
823.219	0.0153825
823.298	0.0151793
823.376	0.0152567
823.454	0.0154089
823.532	0.0154127
823.610	0.0151763
823.688	0.0152816
823.766	0.0152338
823.844	0.0153246
823.923	0.0151208
824.001	0.0150433
824.079	0.0151348
824.157	0.0149484
824.235	0.0149858
824.313	0.0150439
824.391	0.0149235
824.469	0.0148893
824.548	0.0149529
824.626	0.0149919
824.704	0.0149106
824.782	0.0151028
824.860	0.0150155
824.938	0.0152186
825.016	0.0150632
825.094	0.0151157
825.173	0.0153566
825.251	0.0153107
825.329	0.0154753
825.407	0.0154456
825.485	0.0154877
825.563	0.0155088
825.641	0.0156562
825.719	0.0157000
825.798	0.0157238
825.876	0.0157744
825.954	0.0157445
826.032	0.0158678
826.110	0.0158686
826.188	0.0158310
826.266	0.0157226
826.344	0.0157721
826.423	0.0157597
826.501	0.0156414
826.579	0.0155939
826.657	0.0155581
826.735	0.0155026
826.813	0.0154392
826.891	0.0153142
826.969	0.0154232
827.048	0.0153316
827.126	0.0152560
827.204	0.0150914
827.282	0.0151386
827.360	0.0153217
827.438	0.0151114
827.516	0.0150129
827.594	0.0150632
827.673	0.0151597
827.751	0.0151213
827.829	0.0150640
827.907	0.0150771
827.985	0.0150309
828.063	0.0150329
828.141	0.0151696
828.219	0.0151817
828.298	0.0152024
828.376	0.0151279
828.454	0.0153008
828.532	0.0152567
828.610	0.0151863
828.688	0.0151434
828.766	0.0151359
828.844	0.0151901
828.923	0.0151640
829.001	0.0151499
829.079	0.0151847
829.157	0.0151557
829.235	0.0153156
829.313	0.0150641
829.391	0.0150329
829.469	0.0151072
829.548	0.0151221
829.626	0.0149698
829.704	0.0151212
829.782	0.0149855
829.860	0.0150984
829.938	0.0150089
830.016	0.0150075
830.094	0.0150601
830.173	0.0150072
830.251	0.0148984
830.329	0.0150643
830.407	0.0151208
830.485	0.0151424
830.563	0.0151000
830.641	0.0150275
830.719	0.0152723
830.798	0.0153854
830.876	0.0154217
830.954	0.0152686
831.032	0.0154007
831.110	0.0153518
831.188	0.0155289
831.266	0.0153419
831.344	0.0155530
831.423	0.0155968
831.501	0.0156371
831.579	0.0155211
831.657	0.0156550
831.735	0.0155560
831.813	0.0156007
831.891	0.0154871
831.969	0.0154953
832.048	0.0154749
832.126	0.0154585
832.204	0.0156121
832.282	0.0153387
832.360	0.0153973
832.438	0.0154384
832.516	0.0154545
832.594	0.0153868
832.673	0.0154280
832.751	0.0154066
832.829	0.0152177
832.907	0.0152995
832.985	0.0153579
833.063	0.0152514
833.141	0.0153290
833.219	0.0154259
833.298	0.0153095
833.376	0.0152831
833.454	0.0151237
833.532	0.0151696
833.610	0.0152279
833.688	0.0152707
833.766	0.0151428
833.844	0.0151101
833.923	0.0151559
834.001	0.0150368
834.079	0.0149762
834.157	0.0151240
834.235	0.0151715
834.313	0.0150733
834.391	0.0150548
834.469	0.0151953
834.548	0.0150574
834.626	0.0152220
834.704	0.0150823
834.782	0.0152292
834.860	0.0152504
834.938	0.0152202
835.016	0.0152258
835.094	0.0151925
835.173	0.0151966
835.251	0.0152692
835.329	0.0151834
835.407	0.0150311
835.485	0.0150290
835.563	0.0151009
835.641	0.0150206
835.719	0.0152052
835.798	0.0152293
835.876	0.0150423
835.954	0.0150105
836.032	0.0150432
836.110	0.0150680
836.188	0.0148860
836.266	0.0151066
836.344	0.0151271
836.423	0.0151331
836.501	0.0151238
836.579	0.0150526
836.657	0.0150610
836.735	0.0153165
836.813	0.0152056
836.891	0.0151311
836.969	0.0152419
837.048	0.0154353
837.126	0.0153485
837.204	0.0154755
837.282	0.0156027
837.360	0.0157019
837.438	0.0155099
837.516	0.0156934
837.594	0.0156935
837.673	0.0155785
837.751	0.0157115
837.829	0.0156641
837.907	0.0156203
837.985	0.0156869
838.063	0.0156740
838.141	0.0156686
838.219	0.0156105
838.298	0.0154549
838.376	0.0154382
838.454	0.0153275
838.532	0.0152505
838.610	0.0152420
838.688	0.0153367
838.766	0.0151804
838.844	0.0151418
838.923	0.0150344
839.001	0.0148990
839.079	0.0150964
839.157	0.0150304
839.235	0.0149722
839.313	0.0149514
839.391	0.0149599
839.469	0.0148399
839.548	0.0150213
839.626	0.0150938
839.704	0.0148856
839.782	0.0148978
839.860	0.0148666
839.938	0.0149641
840.016	0.0149452
840.094	0.0150763
840.173	0.0151122
840.251	0.0149796
840.329	0.0151833
840.407	0.0151791
840.485	0.0151779
840.563	0.0153234
840.641	0.0152503
840.719	0.0153084
840.798	0.0154498
840.876	0.0154128
840.954	0.0154524
841.032	0.0152904
841.110	0.0154510
841.188	0.0155308
841.266	0.0155705
841.344	0.0154874
841.423	0.0154499
841.501	0.0154489
841.579	0.0155296
841.657	0.0154501
841.735	0.0155276
841.813	0.0154711
841.891	0.0154311
841.969	0.0153944
842.048	0.0154791
842.126	0.0153857
842.204	0.0153477
842.282	0.0151973
842.360	0.0153195
842.438	0.0152682
842.516	0.0151999
842.594	0.0151801
842.673	0.0151549
842.751	0.0151817
842.829	0.0151216
842.907	0.0150359
842.985	0.0150536
843.063	0.0148422
843.141	0.0148456
843.219	0.0148515
843.298	0.0148838
843.376	0.0149438
843.454	0.0149131
843.532	0.0148410
843.610	0.0147832
843.688	0.0149304
843.766	0.0148142
843.844	0.0149077
843.923	0.0149260
844.001	0.0150439
844.079	0.0149300
844.157	0.0149421
844.235	0.0151511
844.313	0.0150328
844.391	0.0150108
844.469	0.0150919
844.548	0.0151321
844.626	0.0150970
844.704	0.0150568
844.782	0.0152024
844.860	0.0151695
844.938	0.0152274
845.016	0.0152329
845.094	0.0151253
845.173	0.0152663
845.251	0.0153687
845.329	0.0153456
845.407	0.0153340
845.485	0.0152637
845.563	0.0153226
845.641	0.0153667
845.719	0.0152578
845.798	0.0153890
845.876	0.0154514
845.954	0.0155534
846.032	0.0154491
846.110	0.0154694
846.188	0.0155288
846.266	0.0154135
846.344	0.0155796
846.423	0.0154573
846.501	0.0155331
846.579	0.0154362
846.657	0.0154026
846.735	0.0154104
846.813	0.0153146
846.891	0.0154675
846.969	0.0154142
847.048	0.0154121
847.126	0.0155358
847.204	0.0153442
847.282	0.0153664
847.360	0.0152996
847.438	0.0153440
847.516	0.0152264
847.594	0.0152456
847.673	0.0151562
847.751	0.0152009
847.829	0.0151391
847.907	0.0150866
847.985	0.0151622
848.063	0.0150223
848.141	0.0150235
848.219	0.0151167
848.298	0.0150813
848.376	0.0150020
848.454	0.0147633
848.532	0.0150306
848.610	0.0150993
848.688	0.0150850
848.766	0.0150185
848.844	0.0151208
848.923	0.0150544
849.001	0.0151701
849.079	0.0151986
849.157	0.0151850
849.235	0.0153410
849.313	0.0152295
849.391	0.0153819
849.469	0.0153665
849.548	0.0153361
849.626	0.0153889
849.704	0.0153768
849.782	0.0153593
849.860	0.0153024
849.938	0.0151118
850.016	0.0152544
850.094	0.0152261
850.173	0.0152267
850.251	0.0151972
850.329	0.0151101
850.407	0.0150813
850.485	0.0150161
850.563	0.0148737
850.641	0.0150072
850.719	0.0149603
850.798	0.0150542
850.876	0.0148844
850.954	0.0149200
851.032	0.0149148
851.110	0.0148697
851.188	0.0150959
851.266	0.0151105
851.344	0.0150198
851.423	0.0151256
851.501	0.0151126
851.579	0.0152899
851.657	0.0152021
851.735	0.0153081
851.813	0.0154359
851.891	0.0153246
851.969	0.0154971
852.048	0.0154603
852.126	0.0153684
852.204	0.0156203
852.282	0.0155759
852.360	0.0155190
852.438	0.0155321
852.516	0.0156403
852.594	0.0154933
852.673	0.0155331
852.751	0.0154830
852.829	0.0154530
852.907	0.0154482
852.985	0.0154055
853.063	0.0155618
853.141	0.0153388
853.219	0.0154044
853.298	0.0154688
853.376	0.0153397
853.454	0.0151723
853.532	0.0152833
853.610	0.0153203
853.688	0.0152824
853.766	0.0151355
853.844	0.0150686
853.923	0.0151112
854.001	0.0150875
854.079	0.0149959
854.157	0.0151407
854.235	0.0150617
854.313	0.0151321
854.391	0.0150702
854.469	0.0149843
854.548	0.0150822
854.626	0.0151733
854.704	0.0151299
854.782	0.0152165
854.860	0.0151621
854.938	0.0151212
855.016	0.0151153
855.094	0.0151328
855.173	0.0150720
855.251	0.0151437
855.329	0.0152476
855.407	0.0153102
855.485	0.0152094
855.563	0.0151025
855.641	0.0151690
855.719	0.0153078
855.798	0.0152725
855.876	0.0150926
855.954	0.0151428
856.032	0.0152552
856.110	0.0152453
856.188	0.0152705
856.266	0.0152647
856.344	0.0152029
856.423	0.0151620
856.501	0.0151338
856.579	0.0151495
856.657	0.0152343
856.735	0.0151181
856.813	0.0150824
856.891	0.0150402
856.969	0.0149711
857.048	0.0151059
857.126	0.0151441
857.204	0.0151483
857.282	0.0151548
857.360	0.0150648
857.438	0.0150597
857.516	0.0151194
857.594	0.0150494
857.673	0.0149557
857.751	0.0152103
857.829	0.0152209
857.907	0.0151595
857.985	0.0152153
858.063	0.0152280
858.141	0.0153249
858.219	0.0153856
858.298	0.0154256
858.376	0.0153611
858.454	0.0152765
858.532	0.0152567
858.610	0.0154638
858.688	0.0155677
858.766	0.0154379
858.844	0.0154255
858.923	0.0153880
859.001	0.0152391
859.079	0.0153960
859.157	0.0154809
859.235	0.0153732
859.313	0.0152535
859.391	0.0153244
859.469	0.0153027
859.548	0.0152663
859.626	0.0153793
859.704	0.0153358
859.782	0.0153683
859.860	0.0152869
859.938	0.0152069
860.016	0.0152995
860.094	0.0152032
860.173	0.0153030
860.251	0.0152696
860.329	0.0151301
860.407	0.0151095
860.485	0.0152540
860.563	0.0150890
860.641	0.0151752
860.719	0.0151312
860.798	0.0150883
860.876	0.0151532
860.954	0.0150573
861.032	0.0150863
861.110	0.0150887
861.188	0.0149488
861.266	0.0149569
861.344	0.0150578
861.423	0.0150264
861.501	0.0150127
861.579	0.0149126
861.657	0.0150342
861.735	0.0148653
861.813	0.0148820
861.891	0.0148434
861.969	0.0150063
862.048	0.0151541
862.126	0.0149700
862.204	0.0151418
862.282	0.0150562
862.360	0.0151276
862.438	0.0152763
862.516	0.0152554
862.594	0.0151492
862.673	0.0152440
862.751	0.0152217
862.829	0.0151880
862.907	0.0152269
862.985	0.0153907
863.063	0.0152937
863.141	0.0153718
863.219	0.0154762
863.298	0.0154581
863.376	0.0153294
863.454	0.0155160
863.532	0.0152958
863.610	0.0153569
863.688	0.0154085
863.766	0.0153634
863.844	0.0153692
863.923	0.0153252
864.001	0.0152147
864.079	0.0154544
864.157	0.0152756
864.235	0.0153429
864.313	0.0151433
864.391	0.0151235
864.469	0.0151410
864.548	0.0150280
864.626	0.0149423
864.704	0.0150107
864.782	0.0149406
864.860	0.0148978
864.938	0.0150321
865.016	0.0149212
865.094	0.0149644
865.173	0.0150046
865.251	0.0150654
865.329	0.0150266
865.407	0.0151298
865.485	0.0151128
865.563	0.0150190
865.641	0.0151328
865.719	0.0153730
865.798	0.0152982
865.876	0.0151411
865.954	0.0153523
866.032	0.0152859
866.110	0.0152964
866.188	0.0154287
866.266	0.0153601
866.344	0.0153957
866.423	0.0153158
866.501	0.0153690
866.579	0.0153810
866.657	0.0153036
866.735	0.0152517
866.813	0.0152396
866.891	0.0151225
866.969	0.0151839
867.048	0.0151176
867.126	0.0149467
867.204	0.0151775
867.282	0.0150838
867.360	0.0150536
867.438	0.0150235
867.516	0.0149754
867.594	0.0149171
867.673	0.0148608
867.751	0.0149751
867.829	0.0147706
867.907	0.0149619
867.985	0.0149767
868.063	0.0151295
868.141	0.0151173
868.219	0.0150631
868.298	0.0150368
868.376	0.0152127
868.454	0.0153024
868.532	0.0153342
868.610	0.0152986
868.688	0.0152383
868.766	0.0153072
868.844	0.0153981
868.923	0.0153640
869.001	0.0154605
869.079	0.0153742
869.157	0.0152512
869.235	0.0153324
869.313	0.0153362
869.391	0.0151826
869.469	0.0153197
869.548	0.0152967
869.626	0.0152937
869.704	0.0150786
869.782	0.0151279
869.860	0.0149768
869.938	0.0151582
870.016	0.0151697
870.094	0.0150751
870.173	0.0149265
870.251	0.0148781
870.329	0.0148558
870.407	0.0147736
870.485	0.0150517
870.563	0.0149785
870.641	0.0149500
870.719	0.0149103
870.798	0.0149857
870.876	0.0150130
870.954	0.0150179
871.032	0.0150486
871.110	0.0152106
871.188	0.0151534
871.266	0.0151979
871.344	0.0154464
871.423	0.0153369
871.501	0.0153706
871.579	0.0155145
871.657	0.0155416
871.735	0.0155212
871.813	0.0155681
871.891	0.0154442
871.969	0.0154758
872.048	0.0156104
872.126	0.0154836
872.204	0.0155604
872.282	0.0156101
872.360	0.0155360
872.438	0.0154314
872.516	0.0154663
872.594	0.0153129
872.673	0.0153162
872.751	0.0153263
872.829	0.0150584
872.907	0.0152222
872.985	0.0152704
873.063	0.0151550
873.141	0.0150564
873.219	0.0150577
873.298	0.0150683
873.376	0.0150145
873.454	0.0149932
873.532	0.0150165
873.610	0.0149612
873.688	0.0149208
873.766	0.0150367
873.844	0.0149635
873.923	0.0150561
874.001	0.0150379
874.079	0.0149860
874.157	0.0151826
874.235	0.0151093
874.313	0.0150539
874.391	0.0152735
874.469	0.0152264
874.548	0.0151343
874.626	0.0151110
874.704	0.0151825
874.782	0.0153048
874.860	0.0151482
874.938	0.0152713
875.016	0.0153403
875.094	0.0152630
875.173	0.0153856
875.251	0.0151661
875.329	0.0152188
875.407	0.0152818
875.485	0.0150968
875.563	0.0152346
875.641	0.0152376
875.719	0.0153225
875.798	0.0153156
875.876	0.0152658
875.954	0.0152158
876.032	0.0152128
876.110	0.0152912
876.188	0.0151933
876.266	0.0151750
876.344	0.0152823
876.423	0.0152190
876.501	0.0151746
876.579	0.0152076
876.657	0.0151008
876.735	0.0152149
876.813	0.0152931
876.891	0.0153185
876.969	0.0151966
877.048	0.0151983
877.126	0.0151897
877.204	0.0151318
877.282	0.0151840
877.360	0.0151373
877.438	0.0151813
877.516	0.0151835
877.594	0.0152283
877.673	0.0152966
877.751	0.0151992
877.829	0.0150637
877.907	0.0153130
877.985	0.0153813
878.063	0.0151611
878.141	0.0151714
878.219	0.0152564
878.298	0.0151139
878.376	0.0151623
878.454	0.0151886
878.532	0.0152208
878.610	0.0153084
878.688	0.0152048
878.766	0.0150598
878.844	0.0153075
878.923	0.0153299
879.001	0.0151118
879.079	0.0152046
879.157	0.0153034
879.235	0.0152547
879.313	0.0152773
879.391	0.0153629
879.469	0.0153316
879.548	0.0152449
879.626	0.0152704
879.704	0.0152760
879.782	0.0153313
879.860	0.0152884
879.938	0.0152338
880.016	0.0152978
880.094	0.0153127
880.173	0.0152564
880.251	0.0152279
880.329	0.0151099
880.407	0.0150879
880.485	0.0149628
880.563	0.0150125
880.641	0.0150342
880.719	0.0149675
880.798	0.0148106
880.876	0.0148897
880.954	0.0148838
881.032	0.0148767
881.110	0.0148843
881.188	0.0149868
881.266	0.0150428
881.344	0.0151447
881.423	0.0151952
881.501	0.0153268
881.579	0.0153317
881.657	0.0155972
881.735	0.0156102
881.813	0.0155769
881.891	0.0156631
881.969	0.0157047
882.048	0.0157670
882.126	0.0156496
882.204	0.0155014
882.282	0.0156412
882.360	0.0153706
882.438	0.0153642
882.516	0.0152612
882.594	0.0151099
882.673	0.0152663
882.751	0.0151292
882.829	0.0150185
882.907	0.0148978
882.985	0.0148484
883.063	0.0148203
883.141	0.0148186
883.219	0.0148335
883.298	0.0147102
883.376	0.0146355
883.454	0.0147573
883.532	0.0150243
883.610	0.0148705
883.688	0.0149811
883.766	0.0149864
883.844	0.0150879
883.923	0.0151873
884.001	0.0152949
884.079	0.0154595
884.157	0.0155530
884.235	0.0155682
884.313	0.0156946
884.391	0.0159396
884.469	0.0160578
884.548	0.0160762
884.626	0.0162051
884.704	0.0162693
884.782	0.0161449
884.860	0.0160661
884.938	0.0159312
885.016	0.0159692
885.094	0.0157397
885.173	0.0156488
885.251	0.0153719
885.329	0.0151231
885.407	0.0147496
885.485	0.0147147
885.563	0.0144633
885.641	0.0141564
885.719	0.0141381
885.798	0.0140596
885.876	0.0139333
885.954	0.0140749
886.032	0.0140278
886.110	0.0141149
886.188	0.0141919
886.266	0.0143267
886.344	0.0143911
886.423	0.0144423
886.501	0.0148647
886.579	0.0148742
886.657	0.0149837
886.735	0.0152823
886.813	0.0152759
886.891	0.0154189
886.969	0.0157156
887.048	0.0159064
887.126	0.0159698
887.204	0.0160226
887.282	0.0161919
887.360	0.0162621
887.438	0.0165579
887.516	0.0164931
887.594	0.0163753
887.673	0.0163191
887.751	0.0162767
887.829	0.0161655
887.907	0.0159766
887.985	0.0159045
888.063	0.0155730
888.141	0.0152937
888.219	0.0149906
888.298	0.0147497
888.376	0.0145315
888.454	0.0141922
888.532	0.0141217
888.610	0.0138382
888.688	0.0138594
888.766	0.0138083
888.844	0.0137032
888.923	0.0136745
889.001	0.0137796
889.079	0.0139472
889.157	0.0140875
889.235	0.0143040
889.313	0.0145115
889.391	0.0146049
889.469	0.0150008
889.548	0.0151872
889.626	0.0153630
889.704	0.0156689
889.782	0.0157622
889.860	0.0160726
889.938	0.0160625
890.016	0.0162412
890.094	0.0163050
890.173	0.0163378
890.251	0.0164456
890.329	0.0164944
890.407	0.0163242
890.485	0.0163593
890.563	0.0163055
890.641	0.0163193
890.719	0.0162246
890.798	0.0161523
890.876	0.0158791
890.954	0.0158057
891.032	0.0156569
891.110	0.0155035
891.188	0.0152303
891.266	0.0152194
891.344	0.0149700
891.423	0.0146780
891.501	0.0145542
891.579	0.0145506
891.657	0.0143832
891.735	0.0142364
891.813	0.0142068
891.891	0.0141837
891.969	0.0141357
892.048	0.0141836
892.126	0.0142570
892.204	0.0142712
892.282	0.0141956
892.360	0.0143924
892.438	0.0144382
892.516	0.0146449
892.594	0.0146545
892.673	0.0148032
892.751	0.0150756
892.829	0.0150511
892.907	0.0151448
892.985	0.0151888
893.063	0.0152569
893.141	0.0155025
893.219	0.0155618
893.298	0.0155740
893.376	0.0155706
893.454	0.0156827
893.532	0.0156673
893.610	0.0157605
893.688	0.0155737
893.766	0.0156980
893.844	0.0157069
893.923	0.0156486
894.001	0.0157050
894.079	0.0157036
894.157	0.0157005
894.235	0.0155906
894.313	0.0154372
894.391	0.0156924
894.469	0.0156222
894.548	0.0155504
894.626	0.0155038
894.704	0.0153956
894.782	0.0152068
894.860	0.0153385
894.938	0.0151497
895.016	0.0152221
895.094	0.0152728
895.173	0.0151154
895.251	0.0150858
895.329	0.0150495
895.407	0.0150435
895.485	0.0150611
895.563	0.0150921
895.641	0.0150361
895.719	0.0149718
895.798	0.0151218
895.876	0.0149191
895.954	0.0150566
896.032	0.0149953
896.110	0.0151042
896.188	0.0150335
896.266	0.0151661
896.344	0.0150538
896.423	0.0150874
896.501	0.0151714
896.579	0.0151084
896.657	0.0151514
896.735	0.0152882
896.813	0.0153139
896.891	0.0153790
896.969	0.0153524
897.048	0.0152365
897.126	0.0152865
897.204	0.0153316
897.282	0.0153688
897.360	0.0151899
897.438	0.0152718
897.516	0.0153136
897.594	0.0151441
897.673	0.0152060
897.751	0.0152012
897.829	0.0152763
897.907	0.0153391
897.985	0.0153865
898.063	0.0154194
898.141	0.0152335
898.219	0.0153690
898.298	0.0154132
898.376	0.0153497
898.454	0.0152363
898.532	0.0152277
898.610	0.0152496
898.688	0.0151418
898.766	0.0151959
898.844	0.0152046
898.923	0.0150645
899.001	0.0150107
899.079	0.0150546
899.157	0.0150887
899.235	0.0149654
899.313	0.0149827
899.391	0.0150345
899.469	0.0150829
899.548	0.0151886
899.626	0.0151006
899.704	0.0152019
899.782	0.0152586
899.860	0.0153226
899.938	0.0154160
900.016	0.0155206
900.094	0.0156011
900.173	0.0155705
900.251	0.0156663
900.329	0.0157346
900.407	0.0158082
900.485	0.0158140
900.563	0.0157259
900.641	0.0155680
900.719	0.0157230
900.798	0.0156632
900.876	0.0156456
900.954	0.0154484
901.032	0.0153889
901.110	0.0154836
901.188	0.0151727
901.266	0.0150851
901.344	0.0151823
901.423	0.0150087
901.501	0.0149008
901.579	0.0148692
901.657	0.0148817
901.735	0.0148642
901.813	0.0147821
901.891	0.0147648
901.969	0.0148617
902.048	0.0147500
902.126	0.0148846
902.204	0.0148573
902.282	0.0149352
902.360	0.0149159
902.438	0.0149298
902.516	0.0150699
902.594	0.0150751
902.673	0.0151896
902.751	0.0152056
902.829	0.0152666
902.907	0.0152349
902.985	0.0151895
903.063	0.0154513
903.141	0.0155012
903.219	0.0151930
903.298	0.0152692
903.376	0.0153369
903.454	0.0153080
903.532	0.0154205
903.610	0.0154736
903.688	0.0153357
903.766	0.0154218
903.844	0.0154600
903.923	0.0154031
904.001	0.0154195
904.079	0.0152859
904.157	0.0153958
904.235	0.0151744
904.313	0.0151648
904.391	0.0152917
904.469	0.0152346
904.548	0.0150803
904.626	0.0151070
904.704	0.0152383
904.782	0.0151038
904.860	0.0151019
904.938	0.0151561
905.016	0.0150273
905.094	0.0151038
905.173	0.0151041
905.251	0.0151231
905.329	0.0150060
905.407	0.0152026
905.485	0.0151084
905.563	0.0150201
905.641	0.0151591
905.719	0.0150648
905.798	0.0150517
905.876	0.0151360
905.954	0.0152166
906.032	0.0151649
906.110	0.0152049
906.188	0.0152825
906.266	0.0152399
906.344	0.0154007
906.423	0.0154175
906.501	0.0153522
906.579	0.0154508
906.657	0.0153941
906.735	0.0153782
906.813	0.0155117
906.891	0.0155069
906.969	0.0153929
907.048	0.0153766
907.126	0.0154453
907.204	0.0154649
907.282	0.0153828
907.360	0.0155383
907.438	0.0154959
907.516	0.0153848
907.594	0.0153645
907.673	0.0152874
907.751	0.0152996
907.829	0.0154095
907.907	0.0153072
907.985	0.0152364
908.063	0.0151558
908.141	0.0151150
908.219	0.0151869
908.298	0.0149603
908.376	0.0149589
908.454	0.0149715
908.532	0.0149835
908.610	0.0149240
908.688	0.0147753
908.766	0.0147217
908.844	0.0148273
908.923	0.0147471
909.001	0.0147924
909.079	0.0149154
909.157	0.0148736
909.235	0.0148972
909.313	0.0148692
909.391	0.0149763
909.469	0.0149818
909.548	0.0149644
909.626	0.0152420
909.704	0.0151969
909.782	0.0151776
909.860	0.0151786
909.938	0.0152917
910.016	0.0152997
910.094	0.0153345
910.173	0.0153069
910.251	0.0153652
910.329	0.0153954
910.407	0.0153345
910.485	0.0153242
910.563	0.0154008
910.641	0.0153358
910.719	0.0153727
910.798	0.0154142
910.876	0.0153139
910.954	0.0153162
911.032	0.0152117
911.110	0.0155370
911.188	0.0153517
911.266	0.0154225
911.344	0.0155170
911.423	0.0153059
911.501	0.0154735
911.579	0.0153147
911.657	0.0152622
911.735	0.0154242
911.813	0.0154053
911.891	0.0153361
911.969	0.0151756
912.048	0.0153022
912.126	0.0154108
912.204	0.0151920
912.282	0.0153007
912.360	0.0151230
912.438	0.0152868
912.516	0.0150791
912.594	0.0152540
912.673	0.0151447
912.751	0.0150486
912.829	0.0151260
912.907	0.0150340
912.985	0.0150537
913.063	0.0150674
913.141	0.0150595
913.219	0.0151525
913.298	0.0150477
913.376	0.0151184
913.454	0.0150156
913.532	0.0151613
913.610	0.0151508
913.688	0.0150230
913.766	0.0151887
913.844	0.0151398
913.923	0.0151422
914.001	0.0151433
914.079	0.0151507
914.157	0.0152647
914.235	0.0150922
914.313	0.0152535
914.391	0.0151181
914.469	0.0151903
914.548	0.0152198
914.626	0.0152098
914.704	0.0151277
914.782	0.0152092
914.860	0.0153647
914.938	0.0153651
915.016	0.0153455
915.094	0.0154728
915.173	0.0155132
915.251	0.0155754
915.329	0.0154438
915.407	0.0154340
915.485	0.0153436
915.563	0.0153922
915.641	0.0154052
915.719	0.0155038
915.798	0.0153468
915.876	0.0152366
915.954	0.0151455
916.032	0.0153106
916.110	0.0152505
916.188	0.0151441
916.266	0.0152097
916.344	0.0151704
916.423	0.0150497
916.501	0.0150367
916.579	0.0150057
916.657	0.0149884
916.735	0.0150314
916.813	0.0150723
916.891	0.0151111
916.969	0.0150212
917.048	0.0149933
917.126	0.0152071
917.204	0.0151089
917.282	0.0151859
917.360	0.0151994
917.438	0.0153139
917.516	0.0153824
917.594	0.0152324
917.673	0.0152660
917.751	0.0155829
917.829	0.0154135
917.907	0.0153938
917.985	0.0153728
918.063	0.0154397
918.141	0.0153648
918.219	0.0152784
918.298	0.0154398
918.376	0.0154997
918.454	0.0153491
918.532	0.0150865
918.610	0.0152229
918.688	0.0153667
918.766	0.0150523
918.844	0.0151317
918.923	0.0152232
919.001	0.0151645
919.079	0.0150842
919.157	0.0151125
919.235	0.0151328
919.313	0.0150526
919.391	0.0150415
919.469	0.0150765
919.548	0.0150734
919.626	0.0152969
919.704	0.0153028
919.782	0.0152494
919.860	0.0152320
919.938	0.0152705
920.016	0.0153047
920.094	0.0152647
920.173	0.0152425
920.251	0.0153798
920.329	0.0154035
920.407	0.0153248
920.485	0.0153456
920.563	0.0152678
920.641	0.0152811
920.719	0.0153952
920.798	0.0154339
920.876	0.0154810
920.954	0.0153279
921.032	0.0154615
921.110	0.0153207
921.188	0.0153436
921.266	0.0153609
921.344	0.0152300
921.423	0.0153619
921.501	0.0152873
921.579	0.0152786
921.657	0.0153201
921.735	0.0151051
921.813	0.0150400
921.891	0.0150158
921.969	0.0151243
922.048	0.0149767
922.126	0.0150546
922.204	0.0151230
922.282	0.0152010
922.360	0.0150964
922.438	0.0151589
922.516	0.0150977
922.594	0.0151854
922.673	0.0151640
922.751	0.0151374
922.829	0.0152483
922.907	0.0154071
922.985	0.0151632
923.063	0.0153991
923.141	0.0154001
923.219	0.0153668
923.298	0.0153745
923.376	0.0155019
923.454	0.0155309
923.532	0.0152912
923.610	0.0153923
923.688	0.0154391
923.766	0.0154034
923.844	0.0153931
923.923	0.0154641
924.001	0.0154877
924.079	0.0152998
924.157	0.0154247
924.235	0.0153025
924.313	0.0153414
924.391	0.0154116
924.469	0.0153664
924.548	0.0152477
924.626	0.0152295
924.704	0.0152797
924.782	0.0153827
924.860	0.0153586
924.938	0.0151675
925.016	0.0151264
925.094	0.0152974
925.173	0.0151051
925.251	0.0151307
925.329	0.0152769
925.407	0.0153220
925.485	0.0151444
925.563	0.0151359
925.641	0.0151469
925.719	0.0151289
925.798	0.0151519
925.876	0.0151658
925.954	0.0152884
926.032	0.0152544
926.110	0.0151476
926.188	0.0152518
926.266	0.0152708
926.344	0.0152962
926.423	0.0151686
926.501	0.0150836
926.579	0.0152235
926.657	0.0150423
926.735	0.0152268
926.813	0.0152683
926.891	0.0152548
926.969	0.0153484
927.048	0.0152504
927.126	0.0152874
927.204	0.0152144
927.282	0.0151463
927.360	0.0152969
927.438	0.0152933
927.516	0.0153114
927.594	0.0153040
927.673	0.0152825
927.751	0.0152260
927.829	0.0152263
927.907	0.0152268
927.985	0.0151939
928.063	0.0152364
928.141	0.0152650
928.219	0.0153418
928.298	0.0153697
928.376	0.0153695
928.454	0.0154630
928.532	0.0153439
928.610	0.0155435
928.688	0.0155496
928.766	0.0155810
928.844	0.0153779
928.923	0.0153791
929.001	0.0154775
929.079	0.0153857
929.157	0.0154408
929.235	0.0154481
929.313	0.0151931
929.391	0.0153593
929.469	0.0152717
929.548	0.0154330
929.626	0.0152313
929.704	0.0153043
929.782	0.0153012
929.860	0.0153333
929.938	0.0152652
930.016	0.0152188
930.094	0.0150470
930.173	0.0151406
930.251	0.0152476
930.329	0.0150634
930.407	0.0150929
930.485	0.0150246
930.563	0.0152109
930.641	0.0150699
930.719	0.0152024
930.798	0.0151376
930.876	0.0149715
930.954	0.0150328
931.032	0.0150756
931.110	0.0151208
931.188	0.0151921
931.266	0.0152369
931.344	0.0153464
931.423	0.0152724
931.501	0.0152024
931.579	0.0152827
931.657	0.0152731
931.735	0.0153474
931.813	0.0151506
931.891	0.0152232
931.969	0.0153113
932.048	0.0153779
932.126	0.0152753
932.204	0.0151810
932.282	0.0151749
932.360	0.0152213
932.438	0.0151225
932.516	0.0151166
932.594	0.0152429
932.673	0.0150244
932.751	0.0150191
932.829	0.0150214
932.907	0.0151275
932.985	0.0150231
933.063	0.0151873
933.141	0.0151123
933.219	0.0151588
933.298	0.0151119
933.376	0.0150101
933.454	0.0151206
933.532	0.0152580
933.610	0.0152678
933.688	0.0152562
933.766	0.0153004
933.844	0.0153580
933.923	0.0154160
934.001	0.0154244
934.079	0.0155849
934.157	0.0154501
934.235	0.0155672
934.313	0.0155800
934.391	0.0156282
934.469	0.0155714
934.548	0.0156651
934.626	0.0155865
934.704	0.0155941
934.782	0.0155948
934.860	0.0154720
934.938	0.0154597
935.016	0.0153728
935.094	0.0152721
935.173	0.0151788
935.251	0.0151549
935.329	0.0149936
935.407	0.0149849
935.485	0.0148596
935.563	0.0148096
935.641	0.0148144
935.719	0.0148673
935.798	0.0147699
935.876	0.0146752
935.954	0.0146575
936.032	0.0148642
936.110	0.0146844
936.188	0.0148634
936.266	0.0148756
936.344	0.0148831
936.423	0.0150533
936.501	0.0150781
936.579	0.0150570
936.657	0.0150968
936.735	0.0151665
936.813	0.0152109
936.891	0.0152476
936.969	0.0153192
937.048	0.0152729
937.126	0.0154592
937.204	0.0153696
937.282	0.0153831
937.360	0.0153136
937.438	0.0155199
937.516	0.0154217
937.594	0.0155267
937.673	0.0155465
937.751	0.0155273
937.829	0.0155457
937.907	0.0156045
937.985	0.0154967
938.063	0.0154245
938.141	0.0154147
938.219	0.0154485
938.298	0.0152212
938.376	0.0152543
938.454	0.0152547
938.532	0.0151445
938.610	0.0151694
938.688	0.0152020
938.766	0.0150317
938.844	0.0149725
938.923	0.0150250
939.001	0.0150291
939.079	0.0150301
939.157	0.0152043
939.235	0.0152993
939.313	0.0150681
939.391	0.0150834
939.469	0.0150581
939.548	0.0150004
939.626	0.0151216
939.704	0.0152752
939.782	0.0152750
939.860	0.0152760
939.938	0.0152213
940.016	0.0153072
940.094	0.0152148
940.173	0.0152767
940.251	0.0154772
940.329	0.0153003
940.407	0.0153918
940.485	0.0153175
940.563	0.0154137
940.641	0.0155069
940.719	0.0152837
940.798	0.0153342
940.876	0.0153544
940.954	0.0152122
941.032	0.0151903
941.110	0.0152013
941.188	0.0151563
941.266	0.0150311
941.344	0.0150311
941.423	0.0148421
941.501	0.0149031
941.579	0.0147668
941.657	0.0148155
941.735	0.0148435
941.813	0.0148381
941.891	0.0147173
941.969	0.0146764
942.048	0.0149557
942.126	0.0149460
942.204	0.0149998
942.282	0.0151160
942.360	0.0150919
942.438	0.0151958
942.516	0.0152959
942.594	0.0154585
942.673	0.0154096
942.751	0.0155732
942.829	0.0155315
942.907	0.0156235
942.985	0.0156518
943.063	0.0157299
943.141	0.0157359
943.219	0.0157975
943.298	0.0157443
943.376	0.0157796
943.454	0.0157628
943.532	0.0156184
943.610	0.0157400
943.688	0.0154868
943.766	0.0153365
943.844	0.0153706
943.923	0.0154933
944.001	0.0154246
944.079	0.0152719
944.157	0.0151267
944.235	0.0151164
944.313	0.0150778
944.391	0.0150370
944.469	0.0148975
944.548	0.0149249
944.626	0.0148434
944.704	0.0147500
944.782	0.0147047
944.860	0.0146731
944.938	0.0147914
945.016	0.0147401
945.094	0.0146811
945.173	0.0148743
945.251	0.0149476
945.329	0.0149311
945.407	0.0148972
945.485	0.0149820
945.563	0.0151178
945.641	0.0151570
945.719	0.0152103
945.798	0.0153738
945.876	0.0153168
945.954	0.0153602
946.032	0.0154886
946.110	0.0155259
946.188	0.0155598
946.266	0.0155197
946.344	0.0155842
946.423	0.0156575
946.501	0.0154716
946.579	0.0155442
946.657	0.0156429
946.735	0.0154699
946.813	0.0154801
946.891	0.0155316
946.969	0.0153912
947.048	0.0153404
947.126	0.0152706
947.204	0.0152390
947.282	0.0151733
947.360	0.0151225
947.438	0.0149680
947.516	0.0150765
947.594	0.0149441
947.673	0.0150322
947.751	0.0150117
947.829	0.0148875
947.907	0.0149367
947.985	0.0148713
948.063	0.0149701
948.141	0.0150551
948.219	0.0149571
948.298	0.0150969
948.376	0.0150014
948.454	0.0150815
948.532	0.0151833
948.610	0.0152950
948.688	0.0152458
948.766	0.0153487
948.844	0.0152877
948.923	0.0153667
949.001	0.0153217
949.079	0.0154064
949.157	0.0153477
949.235	0.0153808
949.313	0.0153757
949.391	0.0154739
949.469	0.0153573
949.548	0.0153309
949.626	0.0152938
949.704	0.0152776
949.782	0.0153987
949.860	0.0153673
949.938	0.0153845
950.016	0.0154333
950.094	0.0153745
950.173	0.0153603
950.251	0.0154575
950.329	0.0154579
950.407	0.0152722
950.485	0.0153099
950.563	0.0153449
950.641	0.0153152
950.719	0.0152935
950.798	0.0151606
950.876	0.0151909
950.954	0.0152241
951.032	0.0153510
951.110	0.0151408
951.188	0.0152245
951.266	0.0150833
951.344	0.0151066
951.423	0.0152971
951.501	0.0152482
951.579	0.0150417
951.657	0.0150063
951.735	0.0150124
951.813	0.0151006
951.891	0.0151157
951.969	0.0150632
952.048	0.0149689
952.126	0.0149792
952.204	0.0150178
952.282	0.0151328
952.360	0.0151503
952.438	0.0150362
952.516	0.0150383
952.594	0.0152710
952.673	0.0152956
952.751	0.0153027
952.829	0.0152877
952.907	0.0151920
952.985	0.0152509
953.063	0.0153052
953.141	0.0152731
953.219	0.0152398
953.298	0.0152662
953.376	0.0153259
953.454	0.0152716
953.532	0.0152894
953.610	0.0152567
953.688	0.0153459
953.766	0.0153024
953.844	0.0153821
953.923	0.0152162
954.001	0.0150755
954.079	0.0150758
954.157	0.0152067
954.235	0.0150952
954.313	0.0151831
954.391	0.0151655
954.469	0.0152122
954.548	0.0151926
954.626	0.0152422
954.704	0.0152721
954.782	0.0153602
954.860	0.0153630
954.938	0.0152927
955.016	0.0153206
955.094	0.0152870
955.173	0.0152818
955.251	0.0152837
955.329	0.0150742
955.407	0.0151933
955.485	0.0150319
955.563	0.0151005
955.641	0.0150408
955.719	0.0150233
955.798	0.0150117
955.876	0.0148843
955.954	0.0150140
956.032	0.0150529
956.110	0.0150532
956.188	0.0152101
956.266	0.0152589
956.344	0.0152623
956.423	0.0151868
956.501	0.0151634
956.579	0.0152157
956.657	0.0153443
956.735	0.0153379
956.813	0.0153650
956.891	0.0152663
956.969	0.0153493
957.048	0.0153723
957.126	0.0152601
957.204	0.0152049
957.282	0.0150886
957.360	0.0151986
957.438	0.0150410
957.516	0.0149733
957.594	0.0150858
957.673	0.0150312
957.751	0.0150119
957.829	0.0150070
957.907	0.0150622
957.985	0.0150193
958.063	0.0150454
958.141	0.0149441
958.219	0.0150019
958.298	0.0151166
958.376	0.0151071
958.454	0.0152132
958.532	0.0152281
958.610	0.0152322
958.688	0.0152756
958.766	0.0152846
958.844	0.0153196
958.923	0.0152245
959.001	0.0153904
959.079	0.0154192
959.157	0.0153411
959.235	0.0153136
959.313	0.0152850
959.391	0.0153518
959.469	0.0153461
959.548	0.0150681
959.626	0.0152742
959.704	0.0150735
959.782	0.0151736
959.860	0.0151832
959.938	0.0152065
960.016	0.0152734
960.094	0.0151630
960.173	0.0152873
960.251	0.0152100
960.329	0.0151775
960.407	0.0151118
960.485	0.0151304
960.563	0.0152473
960.641	0.0151016
960.719	0.0149858
960.798	0.0151528
960.876	0.0151575
960.954	0.0151344
961.032	0.0150227
961.110	0.0151039
961.188	0.0151768
961.266	0.0150921
961.344	0.0151098
961.423	0.0150980
961.501	0.0150834
961.579	0.0152474
961.657	0.0152071
961.735	0.0150777
961.813	0.0150900
961.891	0.0150995
961.969	0.0149644
962.048	0.0151050
962.126	0.0151487
962.204	0.0152655
962.282	0.0152853
962.360	0.0151804
962.438	0.0151582
962.516	0.0152923
962.594	0.0152654
962.673	0.0151778
962.751	0.0152699
962.829	0.0152795
962.907	0.0153090
962.985	0.0154398
963.063	0.0154473
963.141	0.0152738
963.219	0.0153226
963.298	0.0154111
963.376	0.0154062
963.454	0.0153189
963.532	0.0151949
963.610	0.0153291
963.688	0.0154336
963.766	0.0152834
963.844	0.0152954
963.923	0.0152000
964.001	0.0151595
964.079	0.0153175
964.157	0.0151559
964.235	0.0151585
964.313	0.0151259
964.391	0.0151793
964.469	0.0150919
964.548	0.0151954
964.626	0.0152867
964.704	0.0151437
964.782	0.0153062
964.860	0.0152340
964.938	0.0152595
965.016	0.0152916
965.094	0.0153005
965.173	0.0152779
965.251	0.0153303
965.329	0.0150992
965.407	0.0152695
965.485	0.0152704
965.563	0.0152174
965.641	0.0153255
965.719	0.0152631
965.798	0.0152934
965.876	0.0153416
965.954	0.0153526
966.032	0.0152775
966.110	0.0152545
966.188	0.0152219
966.266	0.0152211
966.344	0.0151505
966.423	0.0152939
966.501	0.0152030
966.579	0.0150373
966.657	0.0150449
966.735	0.0150986
966.813	0.0150314
966.891	0.0149138
966.969	0.0149484
967.048	0.0150400
967.126	0.0151074
967.204	0.0149270
967.282	0.0148168
967.360	0.0150523
967.438	0.0151539
967.516	0.0151481
967.594	0.0150404
967.673	0.0152760
967.751	0.0152105
967.829	0.0153391
967.907	0.0153638
967.985	0.0153292
968.063	0.0152557
968.141	0.0152936
968.219	0.0152231
968.298	0.0152385
968.376	0.0151897
968.454	0.0152247
968.532	0.0152172
968.610	0.0152406
968.688	0.0151860
968.766	0.0152986
968.844	0.0151643
968.923	0.0151971
969.001	0.0151355
969.079	0.0152262
969.157	0.0151292
969.235	0.0153006
969.313	0.0154388
969.391	0.0153851
969.469	0.0154035
969.548	0.0153967
969.626	0.0153448
969.704	0.0153158
969.782	0.0154490
969.860	0.0155077
969.938	0.0153696
