05/14/2022	19:05:49	Ver.	4.1	UNKNOWN
Optical Delay	650.016352	Delta X		0.078125	Sweeps	1	Scan Rate	0/0
Coordinates	Axis 1	NaN	Axis 2	NaN	Axis 3	NaN	Axis 4	NaN	Axis 5	NaN	Axis 6	0.000000
TX Power	0.000000	RX Power	0.000000

650.016	0.0152039
650.094	0.0151830
650.173	0.0151553
650.251	0.0152084
650.329	0.0152656
650.407	0.0152135
650.485	0.0151471
650.563	0.0151758
650.641	0.0151019
650.719	0.0152470
650.798	0.0152499
650.876	0.0150843
650.954	0.0152441
651.032	0.0152264
651.110	0.0152767
651.188	0.0153334
651.266	0.0152242
651.344	0.0151870
651.423	0.0152774
651.501	0.0151758
651.579	0.0152135
651.657	0.0153459
651.735	0.0152396
651.813	0.0152445
651.891	0.0152299
651.969	0.0151857
652.048	0.0152034
652.126	0.0151797
652.204	0.0152359
652.282	0.0152296
652.360	0.0151495
652.438	0.0152615
652.516	0.0151289
652.594	0.0153426
652.673	0.0152505
652.751	0.0152168
652.829	0.0152290
652.907	0.0151804
652.985	0.0152263
653.063	0.0152502
653.141	0.0151004
653.219	0.0152280
653.298	0.0152628
653.376	0.0152503
653.454	0.0152250
653.532	0.0153603
653.610	0.0151604
653.688	0.0151420
653.766	0.0152193
653.844	0.0152836
653.923	0.0152007
654.001	0.0152634
654.079	0.0152190
654.157	0.0152731
654.235	0.0152225
654.313	0.0151554
654.391	0.0152663
654.469	0.0150625
654.548	0.0151279
654.626	0.0153278
654.704	0.0152275
654.782	0.0151545
654.860	0.0152473
654.938	0.0152028
655.016	0.0150985
655.094	0.0153384
655.173	0.0152782
655.251	0.0151248
655.329	0.0151575
655.407	0.0152253
655.485	0.0152266
655.563	0.0151851
655.641	0.0152085
655.719	0.0151151
655.798	0.0152123
655.876	0.0152789
655.954	0.0152004
656.032	0.0151533
656.110	0.0152691
656.188	0.0151672
656.266	0.0152312
656.344	0.0150954
656.423	0.0151943
656.501	0.0153166
656.579	0.0152182
656.657	0.0152869
656.735	0.0152502
656.813	0.0150901
656.891	0.0150734
656.969	0.0152350
657.048	0.0152555
657.126	0.0152061
657.204	0.0151662
657.282	0.0151824
657.360	0.0150915
657.438	0.0150800
657.516	0.0152343
657.594	0.0153753
657.673	0.0151725
657.751	0.0152811
657.829	0.0152154
657.907	0.0151925
657.985	0.0151508
658.063	0.0152357
658.141	0.0152232
658.219	0.0151445
658.298	0.0151474
658.376	0.0153013
658.454	0.0152230
658.532	0.0151556
658.610	0.0151911
658.688	0.0151814
658.766	0.0152518
658.844	0.0153136
658.923	0.0152277
659.001	0.0154181
659.079	0.0153200
659.157	0.0152217
659.235	0.0153082
659.313	0.0152308
659.391	0.0153085
659.469	0.0151318
659.548	0.0152002
659.626	0.0152534
659.704	0.0153226
659.782	0.0152052
659.860	0.0152845
659.938	0.0152129
660.016	0.0153457
660.094	0.0150935
660.173	0.0151934
660.251	0.0153463
660.329	0.0152126
660.407	0.0151118
660.485	0.0151351
660.563	0.0151434
660.641	0.0152454
660.719	0.0151448
660.798	0.0152881
660.876	0.0152130
660.954	0.0151822
661.032	0.0152789
661.110	0.0152199
661.188	0.0152146
661.266	0.0151853
661.344	0.0151812
661.423	0.0152502
661.501	0.0153194
661.579	0.0152553
661.657	0.0151733
661.735	0.0152069
661.813	0.0153104
661.891	0.0154088
661.969	0.0151844
662.048	0.0150984
662.126	0.0150682
662.204	0.0151815
662.282	0.0152712
662.360	0.0151871
662.438	0.0152223
662.516	0.0153448
662.594	0.0152919
662.673	0.0152052
662.751	0.0150581
662.829	0.0151537
662.907	0.0152726
662.985	0.0152917
663.063	0.0153624
663.141	0.0151669
663.219	0.0151391
663.298	0.0151651
663.376	0.0152093
663.454	0.0152029
663.532	0.0152211
663.610	0.0152485
663.688	0.0151268
663.766	0.0152009
663.844	0.0151901
663.923	0.0151741
664.001	0.0152612
664.079	0.0152263
664.157	0.0151457
664.235	0.0153213
664.313	0.0152199
664.391	0.0152173
664.469	0.0152059
664.548	0.0151309
664.626	0.0151352
664.704	0.0152503
664.782	0.0152264
664.860	0.0151535
664.938	0.0150574
665.016	0.0151437
665.094	0.0152430
665.173	0.0151706
665.251	0.0151547
665.329	0.0150946
665.407	0.0153288
665.485	0.0151934
665.563	0.0151775
665.641	0.0151714
665.719	0.0150231
665.798	0.0151350
665.876	0.0152975
665.954	0.0151572
666.032	0.0150605
666.110	0.0151241
666.188	0.0151522
666.266	0.0152570
666.344	0.0151452
666.423	0.0151543
666.501	0.0150236
666.579	0.0151405
666.657	0.0151432
666.735	0.0152147
666.813	0.0151981
666.891	0.0151411
666.969	0.0152644
667.048	0.0152355
667.126	0.0151620
667.204	0.0150626
667.282	0.0152976
667.360	0.0151290
667.438	0.0152443
667.516	0.0152785
667.594	0.0151094
667.673	0.0151150
667.751	0.0151590
667.829	0.0151582
667.907	0.0152305
667.985	0.0152155
668.063	0.0152545
668.141	0.0152087
668.219	0.0151717
668.298	0.0150784
668.376	0.0151591
668.454	0.0152847
668.532	0.0152969
668.610	0.0152161
668.688	0.0151889
668.766	0.0151533
668.844	0.0152705
668.923	0.0150999
669.001	0.0151104
669.079	0.0153288
669.157	0.0152615
669.235	0.0152470
669.313	0.0152651
669.391	0.0152937
669.469	0.0152866
669.548	0.0151446
669.626	0.0152087
669.704	0.0152184
669.782	0.0152261
669.860	0.0152290
669.938	0.0152329
670.016	0.0152802
670.094	0.0152203
670.173	0.0150522
670.251	0.0152687
670.329	0.0151730
670.407	0.0152896
670.485	0.0152849
670.563	0.0151276
670.641	0.0151988
670.719	0.0153146
670.798	0.0152816
670.876	0.0151728
670.954	0.0152988
671.032	0.0152348
671.110	0.0152659
671.188	0.0151355
671.266	0.0153963
671.344	0.0151720
671.423	0.0152656
671.501	0.0151991
671.579	0.0152722
671.657	0.0153289
671.735	0.0152027
671.813	0.0152438
671.891	0.0152160
671.969	0.0152821
672.048	0.0153031
672.126	0.0152445
672.204	0.0151833
672.282	0.0152203
672.360	0.0151945
672.438	0.0151508
672.516	0.0152393
672.594	0.0152564
672.673	0.0151769
672.751	0.0151633
672.829	0.0151756
672.907	0.0151916
672.985	0.0151729
673.063	0.0151376
673.141	0.0151244
673.219	0.0151653
673.298	0.0152534
673.376	0.0152229
673.454	0.0152358
673.532	0.0150816
673.610	0.0151668
673.688	0.0151711
673.766	0.0150520
673.844	0.0151370
673.923	0.0151767
674.001	0.0151096
674.079	0.0151373
674.157	0.0151272
674.235	0.0151720
674.313	0.0151461
674.391	0.0151902
674.469	0.0151477
674.548	0.0151091
674.626	0.0150604
674.704	0.0152142
674.782	0.0150865
674.860	0.0150095
674.938	0.0151612
675.016	0.0152561
675.094	0.0151731
675.173	0.0150795
675.251	0.0150016
675.329	0.0151704
675.407	0.0150735
675.485	0.0151800
675.563	0.0152026
675.641	0.0149715
675.719	0.0151582
675.798	0.0150748
675.876	0.0150414
675.954	0.0150400
676.032	0.0150647
676.110	0.0151474
676.188	0.0151775
676.266	0.0150889
676.344	0.0151442
676.423	0.0151773
676.501	0.0150342
676.579	0.0150816
676.657	0.0151999
676.735	0.0150462
676.813	0.0152079
676.891	0.0151581
676.969	0.0150301
677.048	0.0151324
677.126	0.0151461
677.204	0.0151835
677.282	0.0151582
677.360	0.0150812
677.438	0.0151279
677.516	0.0151699
677.594	0.0151555
677.673	0.0152431
677.751	0.0151330
677.829	0.0151418
677.907	0.0152307
677.985	0.0150828
678.063	0.0151005
678.141	0.0152557
678.219	0.0152260
678.298	0.0151317
678.376	0.0151331
678.454	0.0152178
678.532	0.0152393
678.610	0.0152548
678.688	0.0152706
678.766	0.0152481
678.844	0.0151685
678.923	0.0152283
679.001	0.0151596
679.079	0.0151363
679.157	0.0152163
679.235	0.0153107
679.313	0.0152717
679.391	0.0153029
679.469	0.0151386
679.548	0.0154118
679.626	0.0152962
679.704	0.0152651
679.782	0.0153004
679.860	0.0152943
679.938	0.0152310
680.016	0.0153723
680.094	0.0152806
680.173	0.0152548
680.251	0.0153017
680.329	0.0153059
680.407	0.0152486
680.485	0.0152830
680.563	0.0153752
680.641	0.0154057
680.719	0.0153869
680.798	0.0153604
680.876	0.0153919
680.954	0.0153349
681.032	0.0152929
681.110	0.0152778
681.188	0.0152585
681.266	0.0151566
681.344	0.0151776
681.423	0.0153377
681.501	0.0153893
681.579	0.0153069
681.657	0.0153743
681.735	0.0153549
681.813	0.0154670
681.891	0.0152739
681.969	0.0153908
682.048	0.0154610
682.126	0.0152576
682.204	0.0152657
682.282	0.0152271
682.360	0.0153218
682.438	0.0154105
682.516	0.0152440
682.594	0.0152675
682.673	0.0153147
682.751	0.0152906
682.829	0.0152795
682.907	0.0151945
682.985	0.0152511
683.063	0.0152647
683.141	0.0153665
683.219	0.0153963
683.298	0.0152222
683.376	0.0152212
683.454	0.0151575
683.532	0.0154221
683.610	0.0153056
683.688	0.0153555
683.766	0.0152654
683.844	0.0152818
683.923	0.0152054
684.001	0.0152679
684.079	0.0152872
684.157	0.0152820
684.235	0.0152427
684.313	0.0152046
684.391	0.0151727
684.469	0.0153206
684.548	0.0153357
684.626	0.0153217
684.704	0.0152058
684.782	0.0151427
684.860	0.0152662
684.938	0.0150826
685.016	0.0152634
685.094	0.0151939
685.173	0.0152150
685.251	0.0151500
685.329	0.0152979
685.407	0.0151900
685.485	0.0152134
685.563	0.0152159
685.641	0.0152334
685.719	0.0151890
685.798	0.0153036
685.876	0.0151838
685.954	0.0152251
686.032	0.0152505
686.110	0.0152012
686.188	0.0152190
686.266	0.0151320
686.344	0.0151549
686.423	0.0152051
686.501	0.0152125
686.579	0.0152136
686.657	0.0151456
686.735	0.0151850
686.813	0.0152332
686.891	0.0152008
686.969	0.0151372
687.048	0.0151974
687.126	0.0150758
687.204	0.0151943
687.282	0.0152412
687.360	0.0151663
687.438	0.0151347
687.516	0.0151184
687.594	0.0151698
687.673	0.0151399
687.751	0.0150157
687.829	0.0152172
687.907	0.0152711
687.985	0.0152865
688.063	0.0151819
688.141	0.0151939
688.219	0.0151590
688.298	0.0151083
688.376	0.0149934
688.454	0.0151134
688.532	0.0151254
688.610	0.0151601
688.688	0.0152171
688.766	0.0151704
688.844	0.0151039
688.923	0.0151770
689.001	0.0152951
689.079	0.0151884
689.157	0.0150781
689.235	0.0151225
689.313	0.0151469
689.391	0.0152047
689.469	0.0150832
689.548	0.0151705
689.626	0.0153522
689.704	0.0150528
689.782	0.0152229
689.860	0.0152010
689.938	0.0150447
690.016	0.0151908
690.094	0.0151523
690.173	0.0153743
690.251	0.0151992
690.329	0.0151297
690.407	0.0150957
690.485	0.0150999
690.563	0.0151004
690.641	0.0150550
690.719	0.0152098
690.798	0.0152351
690.876	0.0151717
690.954	0.0154325
691.032	0.0153560
691.110	0.0155429
691.188	0.0155134
691.266	0.0155130
691.344	0.0154401
691.423	0.0152228
691.501	0.0152248
691.579	0.0151185
691.657	0.0150032
691.735	0.0149391
691.813	0.0148390
691.891	0.0147982
691.969	0.0147364
692.048	0.0149227
692.126	0.0152168
692.204	0.0151759
692.282	0.0153677
692.360	0.0154689
692.438	0.0155214
692.516	0.0157458
692.594	0.0159276
692.673	0.0158433
692.751	0.0158120
692.829	0.0158381
692.907	0.0158163
692.985	0.0155158
693.063	0.0153463
693.141	0.0153141
693.219	0.0150801
693.298	0.0149702
693.376	0.0147284
693.454	0.0146339
693.532	0.0144959
693.610	0.0144521
693.688	0.0145717
693.766	0.0145000
693.844	0.0145764
693.923	0.0148264
694.001	0.0147903
694.079	0.0149676
694.157	0.0152351
694.235	0.0153532
694.313	0.0154493
694.391	0.0155673
694.469	0.0156911
694.548	0.0155466
694.626	0.0158229
694.704	0.0159093
694.782	0.0159827
694.860	0.0158855
694.938	0.0159451
695.016	0.0158739
695.094	0.0159101
695.173	0.0157947
695.251	0.0155672
695.329	0.0156795
695.407	0.0155133
695.485	0.0154173
695.563	0.0151949
695.641	0.0150177
695.719	0.0149628
695.798	0.0148409
695.876	0.0147153
695.954	0.0144450
696.032	0.0144839
696.110	0.0143010
696.188	0.0142537
696.266	0.0141776
696.344	0.0143306
696.423	0.0141621
696.501	0.0143339
696.579	0.0145181
696.657	0.0146034
696.735	0.0146733
696.813	0.0148624
696.891	0.0151813
696.969	0.0152335
697.048	0.0154085
697.126	0.0157528
697.204	0.0158395
697.282	0.0161246
697.360	0.0163574
697.438	0.0163642
697.516	0.0163950
697.594	0.0164256
697.673	0.0163588
697.751	0.0162972
697.829	0.0163369
697.907	0.0162039
697.985	0.0160217
698.063	0.0157301
698.141	0.0156451
698.219	0.0153163
698.298	0.0150895
698.376	0.0149671
698.454	0.0148445
698.532	0.0145977
698.610	0.0143716
698.688	0.0144147
698.766	0.0142015
698.844	0.0141315
698.923	0.0141541
699.001	0.0140620
699.079	0.0141239
699.157	0.0140844
699.235	0.0141225
699.313	0.0143354
699.391	0.0144479
699.469	0.0145083
699.548	0.0144990
699.626	0.0147561
699.704	0.0149647
699.782	0.0150431
699.860	0.0151646
699.938	0.0152399
700.016	0.0153197
700.094	0.0154664
700.173	0.0155527
700.251	0.0155658
700.329	0.0157487
700.407	0.0157283
700.485	0.0157858
700.563	0.0157849
700.641	0.0158140
700.719	0.0159991
700.798	0.0160738
700.876	0.0160274
700.954	0.0160088
701.032	0.0158443
701.110	0.0159315
701.188	0.0158158
701.266	0.0158189
701.344	0.0158302
701.423	0.0157191
701.501	0.0156503
701.579	0.0155884
701.657	0.0153194
701.735	0.0151671
701.813	0.0151535
701.891	0.0149504
701.969	0.0148052
702.048	0.0148100
702.126	0.0145807
702.204	0.0143360
702.282	0.0143383
702.360	0.0144414
702.438	0.0142117
702.516	0.0140737
702.594	0.0141205
702.673	0.0141017
702.751	0.0142937
702.829	0.0142175
702.907	0.0141651
702.985	0.0142231
703.063	0.0143105
703.141	0.0144313
703.219	0.0143830
703.298	0.0147490
703.376	0.0148521
703.454	0.0149911
703.532	0.0153754
703.610	0.0153445
703.688	0.0153991
703.766	0.0156621
703.844	0.0156183
703.923	0.0157536
704.001	0.0159334
704.079	0.0159368
704.157	0.0160414
704.235	0.0159454
704.313	0.0159949
704.391	0.0157962
704.469	0.0159479
704.548	0.0160163
704.626	0.0158647
704.704	0.0157535
704.782	0.0159093
704.860	0.0158670
704.938	0.0158882
705.016	0.0157223
705.094	0.0156499
705.173	0.0155754
705.251	0.0155957
705.329	0.0153532
705.407	0.0153316
705.485	0.0152285
705.563	0.0151222
705.641	0.0149897
705.719	0.0149015
705.798	0.0148524
705.876	0.0148787
705.954	0.0147105
706.032	0.0146684
706.110	0.0145662
706.188	0.0145825
706.266	0.0145896
706.344	0.0146026
706.423	0.0144232
706.501	0.0144301
706.579	0.0144817
706.657	0.0144364
706.735	0.0145994
706.813	0.0146003
706.891	0.0145432
706.969	0.0144755
707.048	0.0145389
707.126	0.0146790
707.204	0.0148280
707.282	0.0149138
707.360	0.0150413
707.438	0.0151311
707.516	0.0152467
707.594	0.0153271
707.673	0.0154414
707.751	0.0156151
707.829	0.0156064
707.907	0.0157262
707.985	0.0157394
708.063	0.0159564
708.141	0.0158053
708.219	0.0159752
708.298	0.0157848
708.376	0.0156739
708.454	0.0158791
708.532	0.0157996
708.610	0.0156616
708.688	0.0157640
708.766	0.0156918
708.844	0.0155901
708.923	0.0155891
709.001	0.0155080
709.079	0.0155363
709.157	0.0154974
709.235	0.0152163
709.313	0.0153676
709.391	0.0153178
709.469	0.0152715
709.548	0.0150739
709.626	0.0149725
709.704	0.0151211
709.782	0.0151335
709.860	0.0150125
709.938	0.0150822
710.016	0.0150302
710.094	0.0150749
710.173	0.0151196
710.251	0.0150844
710.329	0.0149561
710.407	0.0149644
710.485	0.0150656
710.563	0.0150854
710.641	0.0149928
710.719	0.0149278
710.798	0.0149557
710.876	0.0149529
710.954	0.0150534
711.032	0.0150285
711.110	0.0150709
711.188	0.0150559
711.266	0.0150183
711.344	0.0148532
711.423	0.0150714
711.501	0.0150020
711.579	0.0149737
711.657	0.0150240
711.735	0.0150816
711.813	0.0150649
711.891	0.0149893
711.969	0.0150581
712.048	0.0150056
712.126	0.0150804
712.204	0.0151737
712.282	0.0151659
712.360	0.0152100
712.438	0.0154469
712.516	0.0152641
712.594	0.0152492
712.673	0.0152434
712.751	0.0152050
712.829	0.0153223
712.907	0.0153545
712.985	0.0152929
713.063	0.0153215
713.141	0.0152985
713.219	0.0154769
713.298	0.0154713
713.376	0.0153770
713.454	0.0155116
713.532	0.0153392
713.610	0.0154619
713.688	0.0154124
713.766	0.0152954
713.844	0.0153909
713.923	0.0154168
714.001	0.0153107
714.079	0.0152800
714.157	0.0152077
714.235	0.0151603
714.313	0.0152670
714.391	0.0153357
714.469	0.0152509
714.548	0.0151353
714.626	0.0152848
714.704	0.0152553
714.782	0.0151566
714.860	0.0152612
714.938	0.0152193
715.016	0.0152184
715.094	0.0151884
715.173	0.0151865
715.251	0.0150874
715.329	0.0150657
715.407	0.0150237
715.485	0.0150153
715.563	0.0149229
715.641	0.0149078
715.719	0.0150940
715.798	0.0148190
715.876	0.0148523
715.954	0.0148553
716.032	0.0150002
716.110	0.0147886
716.188	0.0149071
716.266	0.0149438
716.344	0.0150103
716.423	0.0149357
716.501	0.0150935
716.579	0.0151546
716.657	0.0151740
716.735	0.0151196
716.813	0.0151424
716.891	0.0151641
716.969	0.0152556
717.048	0.0153181
717.126	0.0153005
717.204	0.0151755
717.282	0.0152365
717.360	0.0153074
717.438	0.0152965
717.516	0.0154153
717.594	0.0154758
717.673	0.0154554
717.751	0.0155009
717.829	0.0154253
717.907	0.0155886
717.985	0.0154609
718.063	0.0154331
718.141	0.0157648
718.219	0.0156581
718.298	0.0155317
718.376	0.0155399
718.454	0.0156686
718.532	0.0156416
718.610	0.0154517
718.688	0.0155003
718.766	0.0154211
718.844	0.0154758
718.923	0.0154331
719.001	0.0153852
719.079	0.0153348
719.157	0.0153520
719.235	0.0153091
719.313	0.0151450
719.391	0.0151176
719.469	0.0153333
719.548	0.0151509
719.626	0.0152166
719.704	0.0149020
719.782	0.0150344
719.860	0.0149915
719.938	0.0150311
720.016	0.0149764
720.094	0.0150904
720.173	0.0151319
720.251	0.0149825
720.329	0.0149918
720.407	0.0151524
720.485	0.0151771
720.563	0.0151085
720.641	0.0150082
720.719	0.0149456
720.798	0.0150691
720.876	0.0151019
720.954	0.0151094
721.032	0.0150127
721.110	0.0150793
721.188	0.0151329
721.266	0.0150970
721.344	0.0150621
721.423	0.0153123
721.501	0.0152048
721.579	0.0152713
721.657	0.0153471
721.735	0.0152766
721.813	0.0152737
721.891	0.0154469
721.969	0.0153909
722.048	0.0153630
722.126	0.0155173
722.204	0.0154001
722.282	0.0154166
722.360	0.0154257
722.438	0.0153452
722.516	0.0152355
722.594	0.0153416
722.673	0.0154212
722.751	0.0154333
722.829	0.0152549
722.907	0.0153185
722.985	0.0152436
723.063	0.0152665
723.141	0.0150929
723.219	0.0152270
723.298	0.0153697
723.376	0.0152952
723.454	0.0152172
723.532	0.0152892
723.610	0.0152168
723.688	0.0152718
723.766	0.0153860
723.844	0.0153036
723.923	0.0152623
724.001	0.0154178
724.079	0.0151906
724.157	0.0152650
724.235	0.0153659
724.313	0.0151221
724.391	0.0153264
724.469	0.0153242
724.548	0.0152537
724.626	0.0152731
724.704	0.0152930
724.782	0.0152623
724.860	0.0151939
724.938	0.0151206
725.016	0.0152669
725.094	0.0152083
725.173	0.0151545
725.251	0.0152061
725.329	0.0151511
725.407	0.0151189
725.485	0.0151178
725.563	0.0150771
725.641	0.0149887
725.719	0.0151913
725.798	0.0151197
725.876	0.0150764
725.954	0.0150343
726.032	0.0151635
726.110	0.0150752
726.188	0.0150993
726.266	0.0150353
726.344	0.0150934
726.423	0.0150423
726.501	0.0150433
726.579	0.0151629
726.657	0.0151672
726.735	0.0151821
726.813	0.0151105
726.891	0.0152110
726.969	0.0151325
727.048	0.0150919
727.126	0.0151007
727.204	0.0152228
727.282	0.0153266
727.360	0.0151804
727.438	0.0152617
727.516	0.0153999
727.594	0.0152032
727.673	0.0153371
727.751	0.0152547
727.829	0.0152055
727.907	0.0152766
727.985	0.0153446
728.063	0.0152381
728.141	0.0153196
728.219	0.0151551
728.298	0.0151787
728.376	0.0151174
728.454	0.0149294
728.532	0.0149792
728.610	0.0151038
728.688	0.0151138
728.766	0.0150853
728.844	0.0150568
728.923	0.0150076
729.001	0.0150753
729.079	0.0150475
729.157	0.0151424
729.235	0.0150805
729.313	0.0151537
729.391	0.0151627
729.469	0.0153072
729.548	0.0153873
729.626	0.0153426
729.704	0.0153189
729.782	0.0152960
729.860	0.0153945
729.938	0.0152678
730.016	0.0152986
730.094	0.0153458
730.173	0.0153479
730.251	0.0153181
730.329	0.0152930
730.407	0.0152805
730.485	0.0152712
730.563	0.0153756
730.641	0.0151993
730.719	0.0150931
730.798	0.0151484
730.876	0.0151801
730.954	0.0152152
731.032	0.0151360
731.110	0.0151761
731.188	0.0151638
731.266	0.0151762
731.344	0.0150708
731.423	0.0150259
731.501	0.0150271
731.579	0.0151846
731.657	0.0150968
731.735	0.0150584
731.813	0.0152018
731.891	0.0150837
731.969	0.0150575
732.048	0.0150154
732.126	0.0152078
732.204	0.0152824
732.282	0.0152627
732.360	0.0151691
732.438	0.0152053
732.516	0.0152682
732.594	0.0151304
732.673	0.0153278
732.751	0.0152317
732.829	0.0151429
732.907	0.0153127
732.985	0.0151028
733.063	0.0152811
733.141	0.0153271
733.219	0.0152299
733.298	0.0150840
733.376	0.0152286
733.454	0.0151555
733.532	0.0152538
733.610	0.0153079
733.688	0.0152044
733.766	0.0151279
733.844	0.0153181
733.923	0.0153091
734.001	0.0150831
734.079	0.0150750
734.157	0.0151622
734.235	0.0151683
734.313	0.0152759
734.391	0.0151228
734.469	0.0151833
734.548	0.0151383
734.626	0.0151582
734.704	0.0152012
734.782	0.0151951
734.860	0.0152208
734.938	0.0151183
735.016	0.0152747
735.094	0.0151367
735.173	0.0151871
735.251	0.0151132
735.329	0.0151839
735.407	0.0152404
735.485	0.0152525
735.563	0.0150526
735.641	0.0152736
735.719	0.0152312
735.798	0.0151629
735.876	0.0152282
735.954	0.0153043
736.032	0.0152209
736.110	0.0151305
736.188	0.0153134
736.266	0.0153130
736.344	0.0152735
736.423	0.0152224
736.501	0.0152082
736.579	0.0151031
736.657	0.0153210
736.735	0.0151805
736.813	0.0152283
736.891	0.0150955
736.969	0.0151431
737.048	0.0151710
737.126	0.0150722
737.204	0.0151227
737.282	0.0150372
737.360	0.0150511
737.438	0.0150150
737.516	0.0149781
737.594	0.0149844
737.673	0.0149838
737.751	0.0151151
737.829	0.0150403
737.907	0.0149259
737.985	0.0150534
738.063	0.0151516
738.141	0.0150553
738.219	0.0149543
738.298	0.0151974
738.376	0.0153754
738.454	0.0152747
738.532	0.0152782
738.610	0.0154644
738.688	0.0152744
738.766	0.0152607
738.844	0.0153635
738.923	0.0154861
739.001	0.0152893
739.079	0.0154486
739.157	0.0152140
739.235	0.0153663
739.313	0.0154096
739.391	0.0154723
739.469	0.0152897
739.548	0.0152309
739.626	0.0153193
739.704	0.0152463
739.782	0.0153718
739.860	0.0154490
739.938	0.0153381
740.016	0.0153305
740.094	0.0152046
740.173	0.0150861
740.251	0.0152241
740.329	0.0150076
740.407	0.0150681
740.485	0.0150304
740.563	0.0149722
740.641	0.0149527
740.719	0.0148958
740.798	0.0149690
740.876	0.0149869
740.954	0.0150225
741.032	0.0151023
741.110	0.0151427
741.188	0.0151751
741.266	0.0153117
741.344	0.0151833
741.423	0.0153592
741.501	0.0154789
741.579	0.0154425
741.657	0.0152945
741.735	0.0154425
741.813	0.0152579
741.891	0.0153638
741.969	0.0153746
742.048	0.0153524
742.126	0.0154256
742.204	0.0153468
742.282	0.0151984
742.360	0.0150927
742.438	0.0150542
742.516	0.0150815
742.594	0.0150098
742.673	0.0152531
742.751	0.0149557
742.829	0.0149448
742.907	0.0149054
742.985	0.0148895
743.063	0.0150343
743.141	0.0148755
743.219	0.0149087
743.298	0.0149302
743.376	0.0152129
743.454	0.0151035
743.532	0.0151086
743.610	0.0151208
743.688	0.0152421
743.766	0.0153642
743.844	0.0154166
743.923	0.0153730
744.001	0.0155012
744.079	0.0153374
744.157	0.0155293
744.235	0.0155603
744.313	0.0155007
744.391	0.0155576
744.469	0.0155554
744.548	0.0156029
744.626	0.0155083
744.704	0.0153815
744.782	0.0155363
744.860	0.0152641
744.938	0.0152301
745.016	0.0153574
745.094	0.0152451
745.173	0.0152672
745.251	0.0151701
745.329	0.0150877
745.407	0.0152636
745.485	0.0150363
745.563	0.0151234
745.641	0.0152155
745.719	0.0150261
745.798	0.0150186
745.876	0.0150987
745.954	0.0150365
746.032	0.0150855
746.110	0.0152186
746.188	0.0151215
746.266	0.0152432
746.344	0.0152307
746.423	0.0151161
746.501	0.0150583
746.579	0.0151854
746.657	0.0152081
746.735	0.0151566
746.813	0.0152006
746.891	0.0152074
746.969	0.0152480
747.048	0.0152536
747.126	0.0152405
747.204	0.0153866
747.282	0.0153048
747.360	0.0154775
747.438	0.0153427
747.516	0.0154211
747.594	0.0153551
747.673	0.0154051
747.751	0.0153068
747.829	0.0153664
747.907	0.0153967
747.985	0.0153777
748.063	0.0153043
748.141	0.0154186
748.219	0.0152174
748.298	0.0153130
748.376	0.0152692
748.454	0.0152779
748.532	0.0152339
748.610	0.0151347
748.688	0.0151653
748.766	0.0151769
748.844	0.0150910
748.923	0.0150790
749.001	0.0150342
749.079	0.0150298
749.157	0.0151328
749.235	0.0150515
749.313	0.0150870
749.391	0.0149835
749.469	0.0150946
749.548	0.0151218
749.626	0.0151354
749.704	0.0151946
749.782	0.0152188
749.860	0.0153193
749.938	0.0152737
750.016	0.0154045
750.094	0.0154858
750.173	0.0154974
750.251	0.0154941
750.329	0.0154590
750.407	0.0155254
750.485	0.0155506
750.563	0.0154892
750.641	0.0154546
750.719	0.0155089
750.798	0.0153958
750.876	0.0153954
750.954	0.0154452
751.032	0.0153382
751.110	0.0152538
751.188	0.0153452
751.266	0.0152699
751.344	0.0151395
751.423	0.0151001
751.501	0.0151147
751.579	0.0152241
751.657	0.0150428
751.735	0.0151992
751.813	0.0151038
751.891	0.0151880
751.969	0.0150803
752.048	0.0149312
752.126	0.0151327
752.204	0.0150712
752.282	0.0152119
752.360	0.0152061
752.438	0.0151601
752.516	0.0151684
752.594	0.0151820
752.673	0.0150575
752.751	0.0151771
752.829	0.0153506
752.907	0.0151859
752.985	0.0152241
753.063	0.0153683
753.141	0.0151280
753.219	0.0152776
753.298	0.0152518
753.376	0.0151403
753.454	0.0150614
753.532	0.0150712
753.610	0.0150974
753.688	0.0149717
753.766	0.0149192
753.844	0.0149380
753.923	0.0151589
754.001	0.0150536
754.079	0.0152087
754.157	0.0150432
754.235	0.0150842
754.313	0.0150372
754.391	0.0151616
754.469	0.0150383
754.548	0.0150629
754.626	0.0152533
754.704	0.0152364
754.782	0.0151862
754.860	0.0151871
754.938	0.0152852
755.016	0.0152471
755.094	0.0152485
755.173	0.0153102
755.251	0.0154042
755.329	0.0152223
755.407	0.0154004
755.485	0.0152843
755.563	0.0154687
755.641	0.0153084
755.719	0.0154246
755.798	0.0153704
755.876	0.0153787
755.954	0.0153777
756.032	0.0155715
756.110	0.0153921
756.188	0.0154833
756.266	0.0154189
756.344	0.0153516
756.423	0.0153985
756.501	0.0154101
756.579	0.0153501
756.657	0.0154721
756.735	0.0153516
756.813	0.0152166
756.891	0.0152770
756.969	0.0153557
757.048	0.0152341
757.126	0.0152473
757.204	0.0151122
757.282	0.0152519
757.360	0.0151566
757.438	0.0151151
757.516	0.0151704
757.594	0.0152259
757.673	0.0151938
757.751	0.0151637
757.829	0.0151710
757.907	0.0150790
757.985	0.0151301
758.063	0.0151194
758.141	0.0151472
758.219	0.0150407
758.298	0.0151045
758.376	0.0151500
758.454	0.0150439
758.532	0.0150896
758.610	0.0150644
758.688	0.0150872
758.766	0.0150637
758.844	0.0150047
758.923	0.0150731
759.001	0.0151802
759.079	0.0151451
759.157	0.0150388
759.235	0.0149992
759.313	0.0150243
759.391	0.0148680
759.469	0.0150484
759.548	0.0150835
759.626	0.0150269
759.704	0.0150663
759.782	0.0150638
759.860	0.0151044
759.938	0.0152435
760.016	0.0150145
760.094	0.0151167
760.173	0.0153052
760.251	0.0152114
760.329	0.0152588
760.407	0.0154546
760.485	0.0153857
760.563	0.0152829
760.641	0.0154512
760.719	0.0154347
760.798	0.0154921
760.876	0.0155487
760.954	0.0155843
761.032	0.0156003
761.110	0.0154502
761.188	0.0156136
761.266	0.0155231
761.344	0.0155882
761.423	0.0153437
761.501	0.0156865
761.579	0.0154806
761.657	0.0154503
761.735	0.0153582
761.813	0.0152970
761.891	0.0152798
761.969	0.0153954
762.048	0.0151876
762.126	0.0151696
762.204	0.0151494
762.282	0.0150760
762.360	0.0150162
762.438	0.0148985
762.516	0.0149666
762.594	0.0151083
762.673	0.0148002
762.751	0.0148928
762.829	0.0148470
762.907	0.0149229
762.985	0.0149465
763.063	0.0149411
763.141	0.0148887
763.219	0.0148868
763.298	0.0150837
763.376	0.0150624
763.454	0.0150978
763.532	0.0150829
763.610	0.0151644
763.688	0.0150852
763.766	0.0153632
763.844	0.0152248
763.923	0.0153333
764.001	0.0153777
764.079	0.0154292
764.157	0.0153524
764.235	0.0153828
764.313	0.0154569
764.391	0.0153040
764.469	0.0152173
764.548	0.0153562
764.626	0.0153593
764.704	0.0151582
764.782	0.0151010
764.860	0.0152708
764.938	0.0151533
765.016	0.0150559
765.094	0.0150307
765.173	0.0150548
765.251	0.0151150
765.329	0.0148689
765.407	0.0149739
765.485	0.0149419
765.563	0.0150557
765.641	0.0149942
765.719	0.0150625
765.798	0.0150874
765.876	0.0150649
765.954	0.0150328
766.032	0.0149651
766.110	0.0152072
766.188	0.0151775
766.266	0.0152739
766.344	0.0153518
766.423	0.0152774
766.501	0.0151627
766.579	0.0154224
766.657	0.0153304
766.735	0.0154423
766.813	0.0155152
766.891	0.0154069
766.969	0.0155357
767.048	0.0155462
767.126	0.0155162
767.204	0.0155630
767.282	0.0154721
767.360	0.0154414
767.438	0.0153885
767.516	0.0153703
767.594	0.0152326
767.673	0.0154990
767.751	0.0152013
767.829	0.0152518
767.907	0.0152348
767.985	0.0151820
768.063	0.0150474
768.141	0.0150639
768.219	0.0150944
768.298	0.0150280
768.376	0.0150457
768.454	0.0151156
768.532	0.0150566
768.610	0.0148259
768.688	0.0149020
768.766	0.0151785
768.844	0.0148956
768.923	0.0148242
769.001	0.0150102
769.079	0.0150861
769.157	0.0149424
769.235	0.0150755
769.313	0.0149905
769.391	0.0151297
769.469	0.0151982
769.548	0.0150674
769.626	0.0152118
769.704	0.0152914
769.782	0.0154738
769.860	0.0152442
769.938	0.0152330
770.016	0.0153252
770.094	0.0153255
770.173	0.0151683
770.251	0.0154594
770.329	0.0154266
770.407	0.0154268
770.485	0.0153728
770.563	0.0154724
770.641	0.0154549
770.719	0.0155074
770.798	0.0154929
770.876	0.0156253
770.954	0.0153939
771.032	0.0154582
771.110	0.0155135
771.188	0.0154828
771.266	0.0155373
771.344	0.0153564
771.423	0.0154369
771.501	0.0156260
771.579	0.0154691
771.657	0.0153234
771.735	0.0153435
771.813	0.0152425
771.891	0.0152549
771.969	0.0152874
772.048	0.0152438
772.126	0.0150165
772.204	0.0150974
772.282	0.0149799
772.360	0.0150760
772.438	0.0150584
772.516	0.0149863
772.594	0.0148256
772.673	0.0150284
772.751	0.0150615
772.829	0.0150355
772.907	0.0148550
772.985	0.0149693
773.063	0.0149464
773.141	0.0149580
773.219	0.0150363
773.298	0.0148579
773.376	0.0151253
773.454	0.0150771
773.532	0.0150861
773.610	0.0150798
773.688	0.0151115
773.766	0.0152705
773.844	0.0149681
773.923	0.0151141
774.001	0.0152685
774.079	0.0152567
774.157	0.0151942
774.235	0.0151914
774.313	0.0152481
774.391	0.0155172
774.469	0.0154245
774.548	0.0154150
774.626	0.0152348
774.704	0.0152440
774.782	0.0154091
774.860	0.0153924
774.938	0.0153149
775.016	0.0151666
775.094	0.0153012
775.173	0.0152795
775.251	0.0151997
775.329	0.0152750
775.407	0.0153752
775.485	0.0152790
775.563	0.0153448
775.641	0.0152282
775.719	0.0153058
775.798	0.0152579
775.876	0.0154379
775.954	0.0153711
776.032	0.0153669
776.110	0.0153922
776.188	0.0153886
776.266	0.0154131
776.344	0.0153521
776.423	0.0153950
776.501	0.0153650
776.579	0.0152597
776.657	0.0154214
776.735	0.0153672
776.813	0.0152890
776.891	0.0153551
776.969	0.0153174
777.048	0.0152805
777.126	0.0153112
777.204	0.0153263
777.282	0.0152354
777.360	0.0152711
777.438	0.0152101
777.516	0.0151048
777.594	0.0151726
777.673	0.0151803
777.751	0.0151247
777.829	0.0151551
777.907	0.0151060
777.985	0.0151282
778.063	0.0151345
778.141	0.0151533
778.219	0.0151176
778.298	0.0152099
778.376	0.0150962
778.454	0.0151941
778.532	0.0150602
778.610	0.0151390
778.688	0.0151293
778.766	0.0152423
778.844	0.0150507
778.923	0.0150722
779.001	0.0151865
779.079	0.0152786
779.157	0.0152249
779.235	0.0152113
779.313	0.0152325
779.391	0.0151656
779.469	0.0152468
779.548	0.0153777
779.626	0.0152805
779.704	0.0152860
779.782	0.0153110
779.860	0.0152579
779.938	0.0152975
780.016	0.0153381
780.094	0.0153841
780.173	0.0151893
780.251	0.0154686
780.329	0.0153446
780.407	0.0152734
780.485	0.0153825
780.563	0.0153176
780.641	0.0153439
780.719	0.0153162
780.798	0.0154015
780.876	0.0153927
780.954	0.0152974
781.032	0.0152550
781.110	0.0153007
781.188	0.0152627
781.266	0.0154349
781.344	0.0154054
781.423	0.0152840
781.501	0.0154703
781.579	0.0153596
781.657	0.0153394
781.735	0.0153561
781.813	0.0152962
781.891	0.0152955
781.969	0.0152766
782.048	0.0151148
782.126	0.0151505
782.204	0.0151711
782.282	0.0152773
782.360	0.0151080
782.438	0.0150479
782.516	0.0152015
782.594	0.0150433
782.673	0.0151540
782.751	0.0151048
782.829	0.0151374
782.907	0.0151770
782.985	0.0151465
783.063	0.0152895
783.141	0.0152138
783.219	0.0151418
783.298	0.0152880
783.376	0.0153311
783.454	0.0153173
783.532	0.0152473
783.610	0.0152691
783.688	0.0152837
783.766	0.0152399
783.844	0.0152898
783.923	0.0152274
784.001	0.0153428
784.079	0.0153001
784.157	0.0153555
784.235	0.0153468
784.313	0.0151371
784.391	0.0152982
784.469	0.0152096
784.548	0.0152333
784.626	0.0152281
784.704	0.0152240
784.782	0.0151704
784.860	0.0152270
784.938	0.0151804
785.016	0.0151859
785.094	0.0151155
785.173	0.0151337
785.251	0.0151217
785.329	0.0149741
785.407	0.0151871
785.485	0.0152480
785.563	0.0149271
785.641	0.0149181
785.719	0.0150818
785.798	0.0151495
785.876	0.0150709
785.954	0.0150665
786.032	0.0151186
786.110	0.0150202
786.188	0.0150191
786.266	0.0151312
786.344	0.0153047
786.423	0.0151248
786.501	0.0152194
786.579	0.0151666
786.657	0.0151453
786.735	0.0151259
786.813	0.0152637
786.891	0.0152212
786.969	0.0153143
787.048	0.0152826
787.126	0.0153747
787.204	0.0151865
787.282	0.0153712
787.360	0.0152654
787.438	0.0153777
787.516	0.0153507
787.594	0.0153648
787.673	0.0155019
787.751	0.0154346
787.829	0.0153734
787.907	0.0152525
787.985	0.0154885
788.063	0.0153876
788.141	0.0152102
788.219	0.0151958
788.298	0.0153619
788.376	0.0153807
788.454	0.0153041
788.532	0.0152306
788.610	0.0152705
788.688	0.0152585
788.766	0.0152128
788.844	0.0153516
788.923	0.0151064
789.001	0.0153340
789.079	0.0152023
789.157	0.0152471
789.235	0.0153446
789.313	0.0152084
789.391	0.0152123
789.469	0.0152733
789.548	0.0152544
789.626	0.0151916
789.704	0.0150568
789.782	0.0151491
789.860	0.0151337
789.938	0.0151929
790.016	0.0151822
790.094	0.0151081
790.173	0.0151047
790.251	0.0151549
790.329	0.0152121
790.407	0.0151230
790.485	0.0150622
790.563	0.0151447
790.641	0.0152077
790.719	0.0153745
790.798	0.0152463
790.876	0.0152873
790.954	0.0152293
791.032	0.0152463
791.110	0.0152919
791.188	0.0152979
791.266	0.0153471
791.344	0.0153748
791.423	0.0153832
791.501	0.0153542
791.579	0.0153413
791.657	0.0153624
791.735	0.0153824
791.813	0.0154702
791.891	0.0153094
791.969	0.0152012
792.048	0.0154451
792.126	0.0152620
792.204	0.0151624
792.282	0.0152325
792.360	0.0152064
792.438	0.0152129
792.516	0.0150700
792.594	0.0149690
792.673	0.0149593
792.751	0.0150230
792.829	0.0150172
792.907	0.0149570
792.985	0.0150996
793.063	0.0150655
793.141	0.0150428
793.219	0.0151138
793.298	0.0151993
793.376	0.0151466
793.454	0.0151497
793.532	0.0150988
793.610	0.0151314
793.688	0.0153562
793.766	0.0153953
793.844	0.0152782
793.923	0.0153597
794.001	0.0152520
794.079	0.0153996
794.157	0.0154822
794.235	0.0154784
794.313	0.0153867
794.391	0.0154657
794.469	0.0153404
794.548	0.0153226
794.626	0.0154250
794.704	0.0153265
794.782	0.0152950
794.860	0.0152627
794.938	0.0153427
795.016	0.0150815
795.094	0.0151400
795.173	0.0150643
795.251	0.0151740
795.329	0.0150794
795.407	0.0149885
795.485	0.0151333
795.563	0.0149198
795.641	0.0151643
795.719	0.0151657
795.798	0.0151317
795.876	0.0150278
795.954	0.0150378
796.032	0.0150878
796.110	0.0152293
796.188	0.0152065
796.266	0.0150922
796.344	0.0151429
796.423	0.0153085
796.501	0.0153364
796.579	0.0152470
796.657	0.0152142
796.735	0.0153237
796.813	0.0152768
796.891	0.0152981
796.969	0.0153814
797.048	0.0152378
797.126	0.0152616
797.204	0.0153421
797.282	0.0152729
797.360	0.0152860
797.438	0.0152977
797.516	0.0153014
797.594	0.0152713
797.673	0.0154414
797.751	0.0152888
797.829	0.0153171
797.907	0.0154178
797.985	0.0153566
798.063	0.0153389
798.141	0.0152789
798.219	0.0154002
798.298	0.0152672
798.376	0.0152544
798.454	0.0152563
798.532	0.0151389
798.610	0.0152086
798.688	0.0152126
798.766	0.0149690
798.844	0.0150116
798.923	0.0150405
799.001	0.0149115
799.079	0.0148609
799.157	0.0149406
799.235	0.0147991
799.313	0.0148724
799.391	0.0148001
799.469	0.0148395
799.548	0.0148414
799.626	0.0148292
799.704	0.0149342
799.782	0.0149091
799.860	0.0150720
799.938	0.0150415
800.016	0.0150045
800.094	0.0151283
800.173	0.0150652
800.251	0.0152413
800.329	0.0152209
800.407	0.0153125
800.485	0.0152764
800.563	0.0152271
800.641	0.0152364
800.719	0.0152703
800.798	0.0153951
800.876	0.0152171
800.954	0.0154303
801.032	0.0154587
801.110	0.0154064
801.188	0.0154272
801.266	0.0155318
801.344	0.0154195
801.423	0.0154742
801.501	0.0154642
801.579	0.0153111
801.657	0.0152067
801.735	0.0153928
801.813	0.0153683
801.891	0.0152993
801.969	0.0152405
802.048	0.0152766
802.126	0.0153555
802.204	0.0152184
802.282	0.0150959
802.360	0.0151692
802.438	0.0152486
802.516	0.0152146
802.594	0.0151213
802.673	0.0151491
802.751	0.0150831
802.829	0.0150775
802.907	0.0151744
802.985	0.0150928
803.063	0.0151160
803.141	0.0150330
803.219	0.0152227
803.298	0.0150935
803.376	0.0150777
803.454	0.0150566
803.532	0.0150509
803.610	0.0151391
803.688	0.0150021
803.766	0.0150129
803.844	0.0150885
803.923	0.0151860
804.001	0.0151838
804.079	0.0151450
804.157	0.0151266
804.235	0.0151223
804.313	0.0150401
804.391	0.0151634
804.469	0.0153132
804.548	0.0152883
804.626	0.0152423
804.704	0.0152613
804.782	0.0152661
804.860	0.0152728
804.938	0.0152142
805.016	0.0150151
805.094	0.0152659
805.173	0.0151999
805.251	0.0150907
805.329	0.0151708
805.407	0.0151849
805.485	0.0151501
805.563	0.0152753
805.641	0.0150251
805.719	0.0151889
805.798	0.0151559
805.876	0.0151985
805.954	0.0152518
806.032	0.0153025
806.110	0.0150580
806.188	0.0152480
806.266	0.0153304
806.344	0.0152694
806.423	0.0152366
806.501	0.0151736
806.579	0.0152734
806.657	0.0152748
806.735	0.0154176
806.813	0.0153557
806.891	0.0153502
806.969	0.0153453
807.048	0.0153592
807.126	0.0152637
807.204	0.0153811
807.282	0.0153035
807.360	0.0152438
807.438	0.0153561
807.516	0.0152374
807.594	0.0151143
807.673	0.0152872
807.751	0.0152197
807.829	0.0152548
807.907	0.0153079
807.985	0.0152557
808.063	0.0151661
808.141	0.0152115
808.219	0.0151212
808.298	0.0151268
808.376	0.0152132
808.454	0.0151254
808.532	0.0151440
808.610	0.0152044
808.688	0.0152415
808.766	0.0151013
808.844	0.0152275
808.923	0.0151733
809.001	0.0150951
809.079	0.0152734
809.157	0.0153053
809.235	0.0151843
809.313	0.0152240
809.391	0.0152458
809.469	0.0152761
809.548	0.0152715
809.626	0.0150609
809.704	0.0152792
809.782	0.0152775
809.860	0.0152814
809.938	0.0153619
810.016	0.0151812
810.094	0.0153357
810.173	0.0154588
810.251	0.0153008
810.329	0.0152428
810.407	0.0152150
810.485	0.0152237
810.563	0.0151704
810.641	0.0152023
810.719	0.0151402
810.798	0.0150888
810.876	0.0152161
810.954	0.0149944
811.032	0.0149982
811.110	0.0150696
811.188	0.0149783
811.266	0.0150642
811.344	0.0149382
811.423	0.0151218
811.501	0.0150433
811.579	0.0148598
811.657	0.0149385
811.735	0.0150820
811.813	0.0150522
811.891	0.0151366
811.969	0.0150591
812.048	0.0151633
812.126	0.0150052
812.204	0.0150755
812.282	0.0150869
812.360	0.0150776
812.438	0.0153201
812.516	0.0151777
812.594	0.0152188
812.673	0.0153371
812.751	0.0154534
812.829	0.0153374
812.907	0.0153037
812.985	0.0153690
813.063	0.0154826
813.141	0.0153121
813.219	0.0153500
813.298	0.0153368
813.376	0.0154823
813.454	0.0153355
813.532	0.0155872
813.610	0.0153207
813.688	0.0152295
813.766	0.0152306
813.844	0.0151951
813.923	0.0150606
814.001	0.0150726
814.079	0.0152705
814.157	0.0150397
814.235	0.0149830
814.313	0.0150916
814.391	0.0151910
814.469	0.0151852
814.548	0.0151694
814.626	0.0149931
814.704	0.0150973
814.782	0.0150795
814.860	0.0151238
814.938	0.0152576
815.016	0.0152302
815.094	0.0151195
815.173	0.0152393
815.251	0.0153076
815.329	0.0152074
815.407	0.0153226
815.485	0.0152708
815.563	0.0151487
815.641	0.0152364
815.719	0.0153461
815.798	0.0152554
815.876	0.0152095
815.954	0.0153522
816.032	0.0152061
816.110	0.0153490
816.188	0.0152095
816.266	0.0150832
816.344	0.0150816
816.423	0.0151962
816.501	0.0151802
816.579	0.0151235
816.657	0.0150851
816.735	0.0151443
816.813	0.0151019
816.891	0.0150935
816.969	0.0152801
817.048	0.0154057
817.126	0.0151780
817.204	0.0151097
817.282	0.0151871
817.360	0.0153457
817.438	0.0153169
817.516	0.0152628
817.594	0.0152917
817.673	0.0152419
817.751	0.0152922
817.829	0.0153981
817.907	0.0152955
817.985	0.0152943
818.063	0.0154671
818.141	0.0153828
818.219	0.0154024
818.298	0.0153123
818.376	0.0153063
818.454	0.0151762
818.532	0.0152233
818.610	0.0152354
818.688	0.0152119
818.766	0.0150613
818.844	0.0152200
818.923	0.0152202
819.001	0.0150362
819.079	0.0150871
819.157	0.0151513
819.235	0.0150597
819.313	0.0150297
819.391	0.0150169
819.469	0.0150912
819.548	0.0152000
819.626	0.0151360
819.704	0.0149034
819.782	0.0149749
819.860	0.0149210
819.938	0.0148781
820.016	0.0149496
820.094	0.0148944
820.173	0.0148753
820.251	0.0149611
820.329	0.0151512
820.407	0.0151145
820.485	0.0150633
820.563	0.0151400
820.641	0.0150104
820.719	0.0151112
820.798	0.0152587
820.876	0.0151063
820.954	0.0152170
821.032	0.0151729
821.110	0.0152914
821.188	0.0153813
821.266	0.0153551
821.344	0.0152438
821.423	0.0153303
821.501	0.0154549
821.579	0.0155608
821.657	0.0154919
821.735	0.0154234
821.813	0.0153768
821.891	0.0155315
821.969	0.0156113
822.048	0.0154785
822.126	0.0154121
822.204	0.0154567
822.282	0.0155330
822.360	0.0154536
822.438	0.0154539
822.516	0.0154600
822.594	0.0154525
822.673	0.0152963
822.751	0.0152840
822.829	0.0153178
822.907	0.0153461
822.985	0.0153135
823.063	0.0151352
823.141	0.0152776
823.219	0.0152847
823.298	0.0150065
823.376	0.0150619
823.454	0.0150188
823.532	0.0149707
823.610	0.0148798
823.688	0.0150510
823.766	0.0149105
823.844	0.0149104
823.923	0.0148827
824.001	0.0148145
824.079	0.0148323
824.157	0.0148149
824.235	0.0148163
824.313	0.0148716
824.391	0.0148081
824.469	0.0148963
824.548	0.0148204
824.626	0.0148875
824.704	0.0148801
824.782	0.0149541
824.860	0.0149114
824.938	0.0148378
825.016	0.0149662
825.094	0.0150555
825.173	0.0151139
825.251	0.0151400
825.329	0.0149511
825.407	0.0151331
825.485	0.0152831
825.563	0.0152618
825.641	0.0153799
825.719	0.0154719
825.798	0.0153739
825.876	0.0154028
825.954	0.0153843
826.032	0.0152654
826.110	0.0153565
826.188	0.0154015
826.266	0.0155698
826.344	0.0154679
826.423	0.0154994
826.501	0.0154891
826.579	0.0154402
826.657	0.0154812
826.735	0.0154973
826.813	0.0154152
826.891	0.0154188
826.969	0.0155986
827.048	0.0155195
827.126	0.0153894
827.204	0.0154739
827.282	0.0154256
827.360	0.0154474
827.438	0.0153944
827.516	0.0154289
827.594	0.0153339
827.673	0.0155103
827.751	0.0154794
827.829	0.0152449
827.907	0.0152650
827.985	0.0153803
828.063	0.0153278
828.141	0.0152267
828.219	0.0152331
828.298	0.0151783
828.376	0.0152682
828.454	0.0152083
828.532	0.0151830
828.610	0.0151553
828.688	0.0150765
828.766	0.0150651
828.844	0.0151266
828.923	0.0150137
829.001	0.0151128
829.079	0.0149979
829.157	0.0148891
829.235	0.0149448
829.313	0.0149355
829.391	0.0149306
829.469	0.0148261
829.548	0.0148208
829.626	0.0147912
829.704	0.0147218
829.782	0.0147192
829.860	0.0146871
829.938	0.0147300
830.016	0.0148297
830.094	0.0148676
830.173	0.0147693
830.251	0.0147207
830.329	0.0148638
830.407	0.0148392
830.485	0.0147699
830.563	0.0147300
830.641	0.0147964
830.719	0.0149934
830.798	0.0149245
830.876	0.0149763
830.954	0.0151302
831.032	0.0150574
831.110	0.0151275
831.188	0.0152261
831.266	0.0151596
831.344	0.0154411
831.423	0.0154441
831.501	0.0154359
831.579	0.0153457
831.657	0.0154829
831.735	0.0156815
831.813	0.0158167
831.891	0.0158089
831.969	0.0158553
832.048	0.0158704
832.126	0.0160236
832.204	0.0159067
832.282	0.0159750
832.360	0.0159991
832.438	0.0160110
832.516	0.0161207
832.594	0.0159910
832.673	0.0159312
832.751	0.0159373
832.829	0.0158131
832.907	0.0156919
832.985	0.0156963
833.063	0.0156359
833.141	0.0154305
833.219	0.0152814
833.298	0.0152280
833.376	0.0151604
833.454	0.0149718
833.532	0.0150407
833.610	0.0149090
833.688	0.0148070
833.766	0.0146107
833.844	0.0145584
833.923	0.0145174
834.001	0.0145280
834.079	0.0144286
834.157	0.0144549
834.235	0.0144162
834.313	0.0143580
834.391	0.0143707
834.469	0.0143740
834.548	0.0144355
834.626	0.0143323
834.704	0.0142251
834.782	0.0143372
834.860	0.0144447
834.938	0.0146420
835.016	0.0146095
835.094	0.0146513
835.173	0.0146734
835.251	0.0147191
835.329	0.0148408
835.407	0.0147237
835.485	0.0149894
835.563	0.0150911
835.641	0.0151033
835.719	0.0151567
835.798	0.0152753
835.876	0.0153005
835.954	0.0153821
836.032	0.0154543
836.110	0.0155508
836.188	0.0156319
836.266	0.0155485
836.344	0.0157872
836.423	0.0156269
836.501	0.0157643
836.579	0.0159453
836.657	0.0159228
836.735	0.0157762
836.813	0.0156755
836.891	0.0157996
836.969	0.0157296
837.048	0.0157793
837.126	0.0157064
837.204	0.0157767
837.282	0.0157919
837.360	0.0157008
837.438	0.0156708
837.516	0.0156224
837.594	0.0157027
837.673	0.0157234
837.751	0.0156168
837.829	0.0155145
837.907	0.0154826
837.985	0.0155640
838.063	0.0155230
838.141	0.0154162
838.219	0.0152070
838.298	0.0153011
838.376	0.0152023
838.454	0.0151163
838.532	0.0150574
838.610	0.0151614
838.688	0.0149279
838.766	0.0148779
838.844	0.0147363
838.923	0.0148454
839.001	0.0147416
839.079	0.0147476
839.157	0.0146196
839.235	0.0147522
839.313	0.0147452
839.391	0.0145441
839.469	0.0146686
839.548	0.0146108
839.626	0.0146214
839.704	0.0146162
839.782	0.0146519
839.860	0.0147260
839.938	0.0148348
840.016	0.0147693
840.094	0.0149213
840.173	0.0149225
840.251	0.0149911
840.329	0.0150398
840.407	0.0151651
840.485	0.0149413
840.563	0.0150919
840.641	0.0151234
840.719	0.0151502
840.798	0.0153035
840.876	0.0153824
840.954	0.0153225
841.032	0.0153452
841.110	0.0155098
841.188	0.0153988
841.266	0.0155547
841.344	0.0154103
841.423	0.0155103
841.501	0.0155582
841.579	0.0155588
841.657	0.0154976
841.735	0.0154975
841.813	0.0154264
841.891	0.0155424
841.969	0.0156258
842.048	0.0156749
842.126	0.0155884
842.204	0.0155792
842.282	0.0155439
842.360	0.0154205
842.438	0.0156189
842.516	0.0155692
842.594	0.0156030
842.673	0.0155779
842.751	0.0156505
842.829	0.0155305
842.907	0.0154065
842.985	0.0155538
843.063	0.0152762
843.141	0.0154094
843.219	0.0153204
843.298	0.0153512
843.376	0.0153848
843.454	0.0152493
843.532	0.0152332
843.610	0.0153049
843.688	0.0151429
843.766	0.0152531
843.844	0.0150918
843.923	0.0151849
844.001	0.0151245
844.079	0.0150944
844.157	0.0151569
844.235	0.0149997
844.313	0.0151527
844.391	0.0149611
844.469	0.0148943
844.548	0.0150503
844.626	0.0152218
844.704	0.0151394
844.782	0.0151299
844.860	0.0152471
844.938	0.0150578
845.016	0.0150583
845.094	0.0151635
845.173	0.0152232
845.251	0.0151627
845.329	0.0150107
845.407	0.0151371
845.485	0.0151945
845.563	0.0151302
845.641	0.0149259
845.719	0.0151964
845.798	0.0151361
845.876	0.0150244
845.954	0.0151033
846.032	0.0149876
846.110	0.0150139
846.188	0.0149546
846.266	0.0151244
846.344	0.0149855
846.423	0.0148659
846.501	0.0150324
846.579	0.0150502
846.657	0.0151950
846.735	0.0150661
846.813	0.0149435
846.891	0.0150764
846.969	0.0150134
847.048	0.0149570
847.126	0.0150391
847.204	0.0150984
847.282	0.0150169
847.360	0.0151693
847.438	0.0151714
847.516	0.0152280
847.594	0.0152330
847.673	0.0152443
847.751	0.0153121
847.829	0.0154919
847.907	0.0154359
847.985	0.0154738
848.063	0.0154296
848.141	0.0155898
848.219	0.0156705
848.298	0.0153687
848.376	0.0154737
848.454	0.0156218
848.532	0.0155481
848.610	0.0156841
848.688	0.0156801
848.766	0.0153998
848.844	0.0153391
848.923	0.0155630
849.001	0.0154837
849.079	0.0154082
849.157	0.0155791
849.235	0.0152741
849.313	0.0152675
849.391	0.0151030
849.469	0.0152238
849.548	0.0152766
849.626	0.0152501
849.704	0.0153075
849.782	0.0151091
849.860	0.0150701
849.938	0.0149960
850.016	0.0151698
850.094	0.0150912
850.173	0.0150004
850.251	0.0150140
850.329	0.0150428
850.407	0.0150804
850.485	0.0150233
850.563	0.0150848
850.641	0.0150034
850.719	0.0151035
850.798	0.0151206
850.876	0.0151949
850.954	0.0150103
851.032	0.0150993
851.110	0.0151373
851.188	0.0150993
851.266	0.0150084
851.344	0.0151913
851.423	0.0150530
851.501	0.0149969
851.579	0.0150438
851.657	0.0151361
851.735	0.0150932
851.813	0.0152579
851.891	0.0152840
851.969	0.0151124
852.048	0.0151598
852.126	0.0152082
852.204	0.0153620
852.282	0.0153891
852.360	0.0151926
852.438	0.0153047
852.516	0.0155045
852.594	0.0153684
852.673	0.0153931
852.751	0.0153873
852.829	0.0154868
852.907	0.0154917
852.985	0.0153491
853.063	0.0154637
853.141	0.0154297
853.219	0.0152110
853.298	0.0152792
853.376	0.0151924
853.454	0.0152572
853.532	0.0151703
853.610	0.0151199
853.688	0.0150344
853.766	0.0150388
853.844	0.0151437
853.923	0.0151517
854.001	0.0149927
854.079	0.0148768
854.157	0.0151697
854.235	0.0149570
854.313	0.0149786
854.391	0.0150809
854.469	0.0151321
854.548	0.0150651
854.626	0.0151563
854.704	0.0152058
854.782	0.0151878
854.860	0.0151839
854.938	0.0152207
855.016	0.0152929
855.094	0.0151789
855.173	0.0153233
855.251	0.0152740
855.329	0.0153259
855.407	0.0153704
855.485	0.0153751
855.563	0.0153043
855.641	0.0154742
855.719	0.0152216
855.798	0.0154285
855.876	0.0152260
855.954	0.0151939
856.032	0.0152370
856.110	0.0151987
856.188	0.0151736
856.266	0.0152574
856.344	0.0152842
856.423	0.0153665
856.501	0.0153148
856.579	0.0153026
856.657	0.0152760
856.735	0.0153321
856.813	0.0154593
856.891	0.0153523
856.969	0.0155241
857.048	0.0154305
857.126	0.0155024
857.204	0.0154348
857.282	0.0155570
857.360	0.0155119
857.438	0.0155257
857.516	0.0153865
857.594	0.0153182
857.673	0.0154672
857.751	0.0153825
857.829	0.0154360
857.907	0.0153166
857.985	0.0152841
858.063	0.0152941
858.141	0.0151547
858.219	0.0152152
858.298	0.0152251
858.376	0.0153803
858.454	0.0153725
858.532	0.0151170
858.610	0.0150600
858.688	0.0151189
858.766	0.0152801
858.844	0.0150272
858.923	0.0150838
859.001	0.0151357
859.079	0.0150983
859.157	0.0150567
859.235	0.0150716
859.313	0.0150717
859.391	0.0149962
859.469	0.0149527
859.548	0.0149341
859.626	0.0148943
859.704	0.0148725
859.782	0.0148827
859.860	0.0149396
859.938	0.0149235
860.016	0.0147324
860.094	0.0148018
860.173	0.0147796
860.251	0.0148815
860.329	0.0148850
860.407	0.0148953
860.485	0.0149843
860.563	0.0149676
860.641	0.0149129
860.719	0.0149731
860.798	0.0149910
860.876	0.0150604
860.954	0.0151227
861.032	0.0151125
861.110	0.0151401
861.188	0.0152850
861.266	0.0153433
861.344	0.0152954
861.423	0.0153617
861.501	0.0154507
861.579	0.0153799
861.657	0.0155833
861.735	0.0154704
861.813	0.0156548
861.891	0.0157004
861.969	0.0157944
862.048	0.0157390
862.126	0.0157063
862.204	0.0157008
862.282	0.0157487
862.360	0.0157053
862.438	0.0158238
862.516	0.0158618
862.594	0.0158315
862.673	0.0157523
862.751	0.0156884
862.829	0.0156638
862.907	0.0156886
862.985	0.0157842
863.063	0.0155570
863.141	0.0154665
863.219	0.0154844
863.298	0.0156072
863.376	0.0153878
863.454	0.0154359
863.532	0.0152920
863.610	0.0152838
863.688	0.0152015
863.766	0.0152618
863.844	0.0150572
863.923	0.0150356
864.001	0.0149462
864.079	0.0148505
864.157	0.0149809
864.235	0.0148176
864.313	0.0148457
864.391	0.0147340
864.469	0.0148176
864.548	0.0147538
864.626	0.0147092
864.704	0.0146559
864.782	0.0145677
864.860	0.0146779
864.938	0.0147318
865.016	0.0145632
865.094	0.0146480
865.173	0.0148047
865.251	0.0146111
865.329	0.0146922
865.407	0.0146471
865.485	0.0147118
865.563	0.0148157
865.641	0.0148049
865.719	0.0147628
865.798	0.0149187
865.876	0.0149035
865.954	0.0148854
866.032	0.0149345
866.110	0.0151214
866.188	0.0151689
866.266	0.0151678
866.344	0.0151713
866.423	0.0151548
866.501	0.0151875
866.579	0.0153561
866.657	0.0153561
866.735	0.0153504
866.813	0.0153684
866.891	0.0155567
866.969	0.0155902
867.048	0.0156773
867.126	0.0155907
867.204	0.0156255
867.282	0.0157125
867.360	0.0157716
867.438	0.0156255
867.516	0.0155328
867.594	0.0157207
867.673	0.0157066
867.751	0.0155945
867.829	0.0156291
867.907	0.0157149
867.985	0.0156097
868.063	0.0156297
868.141	0.0157291
868.219	0.0155724
868.298	0.0157117
868.376	0.0155048
868.454	0.0154450
868.532	0.0154465
868.610	0.0155592
868.688	0.0155960
868.766	0.0155437
868.844	0.0153135
868.923	0.0153242
869.001	0.0153123
869.079	0.0153368
869.157	0.0151467
869.235	0.0152805
869.313	0.0153358
869.391	0.0151777
869.469	0.0150439
869.548	0.0150911
869.626	0.0150626
869.704	0.0150007
869.782	0.0149826
869.860	0.0150303
869.938	0.0147889
870.016	0.0147805
870.094	0.0149258
870.173	0.0149387
870.251	0.0147099
870.329	0.0147093
870.407	0.0147948
870.485	0.0146807
870.563	0.0147302
870.641	0.0146841
870.719	0.0147516
870.798	0.0147755
870.876	0.0146974
870.954	0.0146743
871.032	0.0147137
871.110	0.0148824
871.188	0.0147515
871.266	0.0148346
871.344	0.0149899
871.423	0.0148790
871.501	0.0150136
871.579	0.0150246
871.657	0.0150186
871.735	0.0150375
871.813	0.0151241
871.891	0.0151716
871.969	0.0152465
872.048	0.0150958
872.126	0.0153082
872.204	0.0152016
872.282	0.0153567
872.360	0.0153563
872.438	0.0153847
872.516	0.0155098
872.594	0.0154982
872.673	0.0155178
872.751	0.0154509
872.829	0.0156251
872.907	0.0155469
872.985	0.0155357
873.063	0.0153931
873.141	0.0154086
873.219	0.0155486
873.298	0.0155690
873.376	0.0155100
873.454	0.0155510
873.532	0.0154050
873.610	0.0154408
873.688	0.0155592
873.766	0.0154163
873.844	0.0153894
873.923	0.0154887
874.001	0.0155473
874.079	0.0154565
874.157	0.0155074
874.235	0.0154235
874.313	0.0154494
874.391	0.0153520
874.469	0.0154340
874.548	0.0154550
874.626	0.0154327
874.704	0.0153997
874.782	0.0153594
874.860	0.0153280
874.938	0.0153046
875.016	0.0153019
875.094	0.0152179
875.173	0.0152740
875.251	0.0151709
875.329	0.0151666
875.407	0.0152891
875.485	0.0152125
875.563	0.0152201
875.641	0.0151698
875.719	0.0150608
875.798	0.0151078
875.876	0.0152136
875.954	0.0150362
876.032	0.0151417
876.110	0.0150950
876.188	0.0150061
876.266	0.0150973
876.344	0.0151486
876.423	0.0151817
876.501	0.0150656
876.579	0.0150858
876.657	0.0151269
876.735	0.0150475
876.813	0.0151733
876.891	0.0150299
876.969	0.0151052
877.048	0.0152258
877.126	0.0151419
877.204	0.0151150
877.282	0.0152480
877.360	0.0151864
877.438	0.0151556
877.516	0.0152605
877.594	0.0150643
877.673	0.0149859
877.751	0.0151704
877.829	0.0152338
877.907	0.0151654
877.985	0.0152003
878.063	0.0151154
878.141	0.0151506
878.219	0.0150669
878.298	0.0152460
878.376	0.0150885
878.454	0.0150724
878.532	0.0152217
878.610	0.0151324
878.688	0.0151206
878.766	0.0150072
878.844	0.0152386
878.923	0.0151630
879.001	0.0149934
879.079	0.0151489
879.157	0.0152615
879.235	0.0152576
879.313	0.0152722
879.391	0.0152862
879.469	0.0153255
879.548	0.0154885
879.626	0.0153822
879.704	0.0153423
879.782	0.0154163
879.860	0.0154603
879.938	0.0154877
880.016	0.0155236
880.094	0.0155595
880.173	0.0154616
880.251	0.0154684
880.329	0.0155149
880.407	0.0156265
880.485	0.0154594
880.563	0.0156732
880.641	0.0155199
880.719	0.0154942
880.798	0.0155554
880.876	0.0155077
880.954	0.0156662
881.032	0.0154375
881.110	0.0154772
881.188	0.0154819
881.266	0.0154665
881.344	0.0155383
881.423	0.0153632
881.501	0.0153091
881.579	0.0153164
881.657	0.0153336
881.735	0.0153439
881.813	0.0153641
881.891	0.0153536
881.969	0.0152419
882.048	0.0150790
882.126	0.0152047
882.204	0.0152657
882.282	0.0152375
882.360	0.0150481
882.438	0.0149491
882.516	0.0149395
882.594	0.0150436
882.673	0.0149897
882.751	0.0149548
882.829	0.0148009
882.907	0.0148771
882.985	0.0149774
883.063	0.0147401
883.141	0.0148478
883.219	0.0148550
883.298	0.0147308
883.376	0.0147104
883.454	0.0146923
883.532	0.0146749
883.610	0.0146901
883.688	0.0146574
883.766	0.0147495
883.844	0.0146662
883.923	0.0148317
884.001	0.0148660
884.079	0.0148516
884.157	0.0148470
884.235	0.0149873
884.313	0.0150407
884.391	0.0151486
884.469	0.0151012
884.548	0.0149809
884.626	0.0151535
884.704	0.0150600
884.782	0.0151343
884.860	0.0151835
884.938	0.0151415
885.016	0.0152075
885.094	0.0152551
885.173	0.0151933
885.251	0.0150981
885.329	0.0152775
885.407	0.0151830
885.485	0.0154466
885.563	0.0156438
885.641	0.0154156
885.719	0.0153519
885.798	0.0154330
885.876	0.0156711
885.954	0.0155064
886.032	0.0154142
886.110	0.0156280
886.188	0.0155391
886.266	0.0155267
886.344	0.0155578
886.423	0.0154754
886.501	0.0155000
886.579	0.0155125
886.657	0.0154897
886.735	0.0155774
886.813	0.0154155
886.891	0.0154202
886.969	0.0153914
887.048	0.0154013
887.126	0.0152821
887.204	0.0152804
887.282	0.0151966
887.360	0.0153386
887.438	0.0151498
887.516	0.0151031
887.594	0.0150474
887.673	0.0151691
887.751	0.0149971
887.829	0.0149609
887.907	0.0149928
887.985	0.0149343
888.063	0.0150113
888.141	0.0149582
888.219	0.0149000
888.298	0.0149939
888.376	0.0150399
888.454	0.0149376
888.532	0.0149911
888.610	0.0149271
888.688	0.0151638
888.766	0.0151235
888.844	0.0150566
888.923	0.0150863
889.001	0.0151016
889.079	0.0150466
889.157	0.0150376
889.235	0.0149353
889.313	0.0149770
889.391	0.0149775
889.469	0.0150447
889.548	0.0149965
889.626	0.0148535
889.704	0.0150275
889.782	0.0149929
889.860	0.0149034
889.938	0.0148029
890.016	0.0148794
890.094	0.0151261
890.173	0.0149677
890.251	0.0149033
890.329	0.0149901
890.407	0.0148755
890.485	0.0149355
890.563	0.0152396
890.641	0.0151089
890.719	0.0149787
890.798	0.0151253
890.876	0.0152479
890.954	0.0150792
891.032	0.0152954
891.110	0.0151626
891.188	0.0152696
891.266	0.0154826
891.344	0.0154099
891.423	0.0155440
891.501	0.0154324
891.579	0.0155102
891.657	0.0155032
891.735	0.0155191
891.813	0.0154282
891.891	0.0154638
891.969	0.0155152
892.048	0.0155608
892.126	0.0154333
892.204	0.0154211
892.282	0.0154777
892.360	0.0153215
892.438	0.0153284
892.516	0.0155076
892.594	0.0154079
892.673	0.0153654
892.751	0.0153731
892.829	0.0152622
892.907	0.0152359
892.985	0.0153052
893.063	0.0153281
893.141	0.0151949
893.219	0.0152060
893.298	0.0152570
893.376	0.0152784
893.454	0.0152956
893.532	0.0151917
893.610	0.0152320
893.688	0.0152697
893.766	0.0152102
893.844	0.0151955
893.923	0.0152967
894.001	0.0150294
894.079	0.0151749
894.157	0.0150806
894.235	0.0151437
894.313	0.0151346
894.391	0.0151343
894.469	0.0151028
894.548	0.0151105
894.626	0.0151559
894.704	0.0152065
894.782	0.0151372
894.860	0.0150889
894.938	0.0149418
895.016	0.0150043
895.094	0.0150113
895.173	0.0150415
895.251	0.0151410
895.329	0.0150465
895.407	0.0150081
895.485	0.0150882
895.563	0.0152029
895.641	0.0152679
895.719	0.0152468
895.798	0.0153581
895.876	0.0152150
895.954	0.0150827
896.032	0.0152831
896.110	0.0153227
896.188	0.0153017
896.266	0.0152709
896.344	0.0153674
896.423	0.0152901
896.501	0.0152979
896.579	0.0153232
896.657	0.0152954
896.735	0.0153023
896.813	0.0152696
896.891	0.0152602
896.969	0.0154544
897.048	0.0151080
897.126	0.0153054
897.204	0.0153196
897.282	0.0153937
897.360	0.0152927
897.438	0.0151608
897.516	0.0152193
897.594	0.0153883
897.673	0.0153158
897.751	0.0153521
897.829	0.0153175
897.907	0.0151559
897.985	0.0153066
898.063	0.0152596
898.141	0.0152457
898.219	0.0152490
898.298	0.0153819
898.376	0.0153210
898.454	0.0152078
898.532	0.0153082
898.610	0.0153717
898.688	0.0152727
898.766	0.0153127
898.844	0.0152395
898.923	0.0151981
899.001	0.0150648
899.079	0.0152419
899.157	0.0150500
899.235	0.0149143
899.313	0.0151395
899.391	0.0153507
899.469	0.0153400
899.548	0.0151337
899.626	0.0152363
899.704	0.0152239
899.782	0.0152441
899.860	0.0152360
899.938	0.0152606
900.016	0.0150914
900.094	0.0150732
900.173	0.0151890
900.251	0.0150416
900.329	0.0151552
900.407	0.0151325
900.485	0.0151541
900.563	0.0152844
900.641	0.0151675
900.719	0.0152596
900.798	0.0154455
900.876	0.0153043
900.954	0.0151408
901.032	0.0152798
901.110	0.0154546
901.188	0.0153564
901.266	0.0151923
901.344	0.0151164
901.423	0.0152260
901.501	0.0153014
901.579	0.0151990
901.657	0.0153291
901.735	0.0154368
901.813	0.0154772
901.891	0.0154102
901.969	0.0155321
902.048	0.0152998
902.126	0.0152729
902.204	0.0153638
902.282	0.0152436
902.360	0.0152982
902.438	0.0152016
902.516	0.0151646
902.594	0.0150854
902.673	0.0152332
902.751	0.0151127
902.829	0.0151633
902.907	0.0151826
902.985	0.0152242
903.063	0.0151469
903.141	0.0150658
903.219	0.0150620
903.298	0.0150829
903.376	0.0153671
903.454	0.0152084
903.532	0.0152247
903.610	0.0151241
903.688	0.0151955
903.766	0.0151585
903.844	0.0150573
903.923	0.0151275
904.001	0.0151488
904.079	0.0150103
904.157	0.0149196
904.235	0.0150695
904.313	0.0150677
904.391	0.0149678
904.469	0.0149973
904.548	0.0149567
904.626	0.0150375
904.704	0.0150479
904.782	0.0150851
904.860	0.0151445
904.938	0.0151537
905.016	0.0150224
905.094	0.0153062
905.173	0.0152956
905.251	0.0152256
905.329	0.0151984
905.407	0.0152614
905.485	0.0151910
905.563	0.0152974
905.641	0.0152924
905.719	0.0151868
905.798	0.0151197
905.876	0.0151896
905.954	0.0153432
906.032	0.0150771
906.110	0.0150279
906.188	0.0150195
906.266	0.0149345
906.344	0.0151113
906.423	0.0151212
906.501	0.0150215
906.579	0.0151291
906.657	0.0150983
906.735	0.0150784
906.813	0.0151625
906.891	0.0153226
906.969	0.0152937
907.048	0.0152972
907.126	0.0152960
907.204	0.0154373
907.282	0.0153679
907.360	0.0153931
907.438	0.0152927
907.516	0.0153274
907.594	0.0153384
907.673	0.0152894
907.751	0.0152920
907.829	0.0152893
907.907	0.0152014
907.985	0.0152722
908.063	0.0150795
908.141	0.0152168
908.219	0.0152209
908.298	0.0151549
908.376	0.0151860
908.454	0.0151900
908.532	0.0152098
908.610	0.0154173
908.688	0.0151918
908.766	0.0152572
908.844	0.0151898
908.923	0.0152907
909.001	0.0154971
909.079	0.0152264
909.157	0.0150867
909.235	0.0153161
909.313	0.0152706
909.391	0.0151987
909.469	0.0151069
909.548	0.0152339
909.626	0.0151965
909.704	0.0150576
909.782	0.0149409
909.860	0.0149712
909.938	0.0149905
910.016	0.0149821
910.094	0.0149052
910.173	0.0148558
910.251	0.0146201
910.329	0.0147170
910.407	0.0147298
910.485	0.0148524
910.563	0.0149747
910.641	0.0149251
910.719	0.0150024
910.798	0.0150774
910.876	0.0152376
910.954	0.0151557
911.032	0.0151816
911.110	0.0152797
911.188	0.0152813
911.266	0.0153118
911.344	0.0152455
911.423	0.0152712
911.501	0.0152581
911.579	0.0153973
911.657	0.0153886
911.735	0.0154564
911.813	0.0153499
911.891	0.0151918
911.969	0.0152699
912.048	0.0152161
912.126	0.0151701
912.204	0.0152264
912.282	0.0150997
912.360	0.0151263
912.438	0.0151386
912.516	0.0151524
912.594	0.0151773
912.673	0.0150873
912.751	0.0151015
912.829	0.0150266
912.907	0.0151380
912.985	0.0151640
913.063	0.0152299
913.141	0.0153590
913.219	0.0151954
913.298	0.0152565
913.376	0.0152876
913.454	0.0154148
913.532	0.0154801
913.610	0.0154243
913.688	0.0153751
913.766	0.0154355
913.844	0.0153765
913.923	0.0152193
914.001	0.0153542
914.079	0.0154239
914.157	0.0153019
914.235	0.0153043
914.313	0.0152174
914.391	0.0152250
914.469	0.0151798
914.548	0.0152049
914.626	0.0151787
914.704	0.0151749
914.782	0.0153094
914.860	0.0150161
914.938	0.0150993
915.016	0.0150423
915.094	0.0151288
915.173	0.0151655
915.251	0.0150993
915.329	0.0151612
915.407	0.0151678
915.485	0.0151608
915.563	0.0151614
915.641	0.0152247
915.719	0.0152556
915.798	0.0152381
915.876	0.0151034
915.954	0.0152473
916.032	0.0151413
916.110	0.0151594
916.188	0.0151007
916.266	0.0152764
916.344	0.0153003
916.423	0.0152013
916.501	0.0151981
916.579	0.0152551
916.657	0.0150921
916.735	0.0151908
916.813	0.0150840
916.891	0.0150462
916.969	0.0151851
917.048	0.0152042
917.126	0.0151312
917.204	0.0151025
917.282	0.0151649
917.360	0.0151460
917.438	0.0151173
917.516	0.0151172
917.594	0.0150898
917.673	0.0151449
917.751	0.0151037
917.829	0.0150993
917.907	0.0149739
917.985	0.0150047
918.063	0.0151274
918.141	0.0151066
918.219	0.0149798
918.298	0.0150395
918.376	0.0150775
918.454	0.0151132
918.532	0.0150937
918.610	0.0152366
918.688	0.0152010
918.766	0.0153157
918.844	0.0152934
918.923	0.0153065
919.001	0.0153147
919.079	0.0153359
919.157	0.0152962
919.235	0.0152418
919.313	0.0153181
919.391	0.0154398
919.469	0.0153998
919.548	0.0153231
919.626	0.0152601
919.704	0.0152994
919.782	0.0153192
919.860	0.0152393
919.938	0.0152320
920.016	0.0152528
920.094	0.0151022
920.173	0.0152546
920.251	0.0151751
920.329	0.0152848
920.407	0.0150191
920.485	0.0150589
920.563	0.0150054
920.641	0.0151163
920.719	0.0151068
920.798	0.0150559
920.876	0.0149202
920.954	0.0150391
921.032	0.0151447
921.110	0.0151822
921.188	0.0151709
921.266	0.0151336
921.344	0.0152208
921.423	0.0151695
921.501	0.0151682
921.579	0.0152113
921.657	0.0152036
921.735	0.0152350
921.813	0.0153154
921.891	0.0152438
921.969	0.0151800
922.048	0.0153401
922.126	0.0153875
922.204	0.0153470
922.282	0.0153225
922.360	0.0152606
922.438	0.0153375
922.516	0.0152909
922.594	0.0151756
922.673	0.0152569
922.751	0.0153688
922.829	0.0153753
922.907	0.0152087
922.985	0.0151603
923.063	0.0151296
923.141	0.0151820
923.219	0.0151194
923.298	0.0150639
923.376	0.0152626
923.454	0.0151464
923.532	0.0151561
923.610	0.0151788
923.688	0.0153056
923.766	0.0153078
923.844	0.0151118
923.923	0.0153352
924.001	0.0152840
924.079	0.0152592
924.157	0.0152145
924.235	0.0151687
924.313	0.0153532
924.391	0.0151233
924.469	0.0151964
924.548	0.0152628
924.626	0.0151492
924.704	0.0152509
924.782	0.0153297
924.860	0.0153107
924.938	0.0153033
925.016	0.0152618
925.094	0.0151902
925.173	0.0151709
925.251	0.0152351
925.329	0.0151795
925.407	0.0152267
925.485	0.0151626
925.563	0.0151831
925.641	0.0152091
925.719	0.0152538
925.798	0.0151760
925.876	0.0151259
925.954	0.0150783
926.032	0.0153362
926.110	0.0152179
926.188	0.0151656
926.266	0.0152015
926.344	0.0152620
926.423	0.0150557
926.501	0.0151991
926.579	0.0152309
926.657	0.0152023
926.735	0.0153317
926.813	0.0152919
926.891	0.0153281
926.969	0.0150660
927.048	0.0151517
927.126	0.0152496
927.204	0.0152461
927.282	0.0152383
927.360	0.0151651
927.438	0.0152489
927.516	0.0152415
927.594	0.0151198
927.673	0.0151762
927.751	0.0151856
927.829	0.0152194
927.907	0.0152505
927.985	0.0152348
928.063	0.0151343
928.141	0.0153203
928.219	0.0152486
928.298	0.0151747
928.376	0.0152586
928.454	0.0153064
928.532	0.0152480
928.610	0.0152060
928.688	0.0152917
928.766	0.0152538
928.844	0.0153657
928.923	0.0151779
929.001	0.0152012
929.079	0.0152678
929.157	0.0152080
929.235	0.0151979
929.313	0.0151628
929.391	0.0151884
929.469	0.0152247
929.548	0.0152837
929.626	0.0152395
929.704	0.0151661
929.782	0.0151241
929.860	0.0151466
929.938	0.0150168
930.016	0.0151745
930.094	0.0150573
930.173	0.0149463
930.251	0.0150833
930.329	0.0151178
930.407	0.0150238
930.485	0.0150248
930.563	0.0149825
930.641	0.0150478
930.719	0.0150838
930.798	0.0151017
930.876	0.0152221
930.954	0.0149944
931.032	0.0150562
931.110	0.0151601
931.188	0.0152171
931.266	0.0151171
931.344	0.0150477
931.423	0.0151639
931.501	0.0150842
931.579	0.0150565
931.657	0.0151398
931.735	0.0151550
931.813	0.0150981
931.891	0.0151602
931.969	0.0151601
932.048	0.0152088
932.126	0.0151809
932.204	0.0151307
932.282	0.0151362
932.360	0.0151891
932.438	0.0152199
932.516	0.0151566
932.594	0.0152863
932.673	0.0151239
932.751	0.0149979
932.829	0.0152761
932.907	0.0151755
932.985	0.0152420
933.063	0.0153139
933.141	0.0151592
933.219	0.0152248
933.298	0.0152824
933.376	0.0152255
933.454	0.0151501
933.532	0.0151648
933.610	0.0154192
933.688	0.0151950
933.766	0.0151495
933.844	0.0153264
933.923	0.0152213
934.001	0.0151056
934.079	0.0152400
934.157	0.0152517
934.235	0.0151534
934.313	0.0152348
934.391	0.0150655
934.469	0.0152192
934.548	0.0150300
934.626	0.0150822
934.704	0.0151141
934.782	0.0152431
934.860	0.0152077
934.938	0.0152062
935.016	0.0150971
935.094	0.0151266
935.173	0.0151627
935.251	0.0151443
935.329	0.0151269
935.407	0.0151230
935.485	0.0152571
935.563	0.0152589
935.641	0.0152065
935.719	0.0152539
935.798	0.0152240
935.876	0.0152069
935.954	0.0151917
936.032	0.0151651
936.110	0.0152799
936.188	0.0153053
936.266	0.0152584
936.344	0.0151941
936.423	0.0153815
936.501	0.0152780
936.579	0.0151873
936.657	0.0151684
936.735	0.0152931
936.813	0.0152654
936.891	0.0151899
936.969	0.0152594
937.048	0.0151402
937.126	0.0151058
937.204	0.0152042
937.282	0.0152514
937.360	0.0151898
937.438	0.0150768
937.516	0.0151073
937.594	0.0152422
937.673	0.0151524
937.751	0.0150060
937.829	0.0152316
937.907	0.0151445
937.985	0.0151101
938.063	0.0150547
938.141	0.0151431
938.219	0.0150893
938.298	0.0153390
938.376	0.0151344
938.454	0.0150902
938.532	0.0151048
938.610	0.0152733
938.688	0.0153680
938.766	0.0152555
938.844	0.0152731
938.923	0.0151601
939.001	0.0152659
939.079	0.0152681
939.157	0.0153076
939.235	0.0152635
939.313	0.0152622
939.391	0.0153191
939.469	0.0152998
939.548	0.0154062
939.626	0.0152643
939.704	0.0152824
939.782	0.0152888
939.860	0.0152869
939.938	0.0151466
940.016	0.0152158
940.094	0.0152946
940.173	0.0154007
940.251	0.0152499
940.329	0.0151122
940.407	0.0152816
940.485	0.0152529
940.563	0.0151546
940.641	0.0151797
940.719	0.0151556
940.798	0.0152448
940.876	0.0151026
940.954	0.0151583
941.032	0.0152119
941.110	0.0151842
941.188	0.0150729
941.266	0.0152661
941.344	0.0153565
941.423	0.0150137
941.501	0.0150496
941.579	0.0153635
941.657	0.0150995
941.735	0.0152510
941.813	0.0152753
941.891	0.0152197
941.969	0.0153300
942.048	0.0152940
942.126	0.0151204
942.204	0.0152199
942.282	0.0150896
942.360	0.0151698
942.438	0.0152986
942.516	0.0150362
942.594	0.0151101
942.673	0.0152666
942.751	0.0151760
942.829	0.0152414
942.907	0.0151588
942.985	0.0152272
943.063	0.0152421
943.141	0.0152445
943.219	0.0152327
943.298	0.0151424
943.376	0.0151840
943.454	0.0152654
943.532	0.0153191
943.610	0.0152531
943.688	0.0153013
943.766	0.0152522
943.844	0.0153013
943.923	0.0153175
944.001	0.0153623
944.079	0.0152772
944.157	0.0152840
944.235	0.0153799
944.313	0.0153123
944.391	0.0152662
944.469	0.0152665
944.548	0.0152098
944.626	0.0152561
944.704	0.0153516
944.782	0.0153387
944.860	0.0154903
944.938	0.0153303
945.016	0.0151920
945.094	0.0153223
945.173	0.0151880
945.251	0.0152670
945.329	0.0151985
945.407	0.0152322
945.485	0.0151895
945.563	0.0152583
945.641	0.0153172
945.719	0.0152534
945.798	0.0152699
945.876	0.0152126
945.954	0.0152027
946.032	0.0150201
946.110	0.0151747
946.188	0.0150864
946.266	0.0150964
946.344	0.0150937
946.423	0.0152393
946.501	0.0151311
946.579	0.0151138
946.657	0.0151588
946.735	0.0151792
946.813	0.0150504
946.891	0.0150349
946.969	0.0150460
947.048	0.0152118
947.126	0.0151927
947.204	0.0150899
947.282	0.0150612
947.360	0.0150781
947.438	0.0151870
947.516	0.0151193
947.594	0.0151204
947.673	0.0151303
947.751	0.0151807
947.829	0.0152463
947.907	0.0152667
947.985	0.0153090
948.063	0.0154563
948.141	0.0153096
948.219	0.0152822
948.298	0.0153957
948.376	0.0152886
948.454	0.0151271
948.532	0.0154477
948.610	0.0152284
948.688	0.0153075
948.766	0.0151763
948.844	0.0153893
948.923	0.0153913
949.001	0.0152224
949.079	0.0153540
949.157	0.0153078
949.235	0.0152573
949.313	0.0152568
949.391	0.0152106
949.469	0.0152382
949.548	0.0153183
949.626	0.0153497
949.704	0.0154633
949.782	0.0152254
949.860	0.0152421
949.938	0.0152764
950.016	0.0152242
950.094	0.0150495
950.173	0.0151871
950.251	0.0152650
950.329	0.0153046
950.407	0.0151109
950.485	0.0152117
950.563	0.0152029
950.641	0.0152604
950.719	0.0151839
950.798	0.0151845
950.876	0.0151645
950.954	0.0152219
951.032	0.0151289
951.110	0.0152527
951.188	0.0152683
951.266	0.0152364
951.344	0.0153117
951.423	0.0151777
951.501	0.0151263
951.579	0.0152476
951.657	0.0152120
951.735	0.0151445
951.813	0.0151302
951.891	0.0151485
951.969	0.0151495
952.048	0.0152410
952.126	0.0152714
952.204	0.0152228
952.282	0.0153593
952.360	0.0152792
952.438	0.0152365
952.516	0.0152732
952.594	0.0153793
952.673	0.0152612
952.751	0.0151894
952.829	0.0153233
952.907	0.0151750
952.985	0.0152203
953.063	0.0151674
953.141	0.0151841
953.219	0.0152848
953.298	0.0151962
953.376	0.0152516
953.454	0.0153872
953.532	0.0152771
953.610	0.0152037
953.688	0.0151494
953.766	0.0153083
953.844	0.0151835
953.923	0.0153159
954.001	0.0150986
954.079	0.0152068
954.157	0.0153674
954.235	0.0154503
954.313	0.0153405
954.391	0.0152422
954.469	0.0152647
954.548	0.0154478
954.626	0.0153677
954.704	0.0152888
954.782	0.0153077
954.860	0.0153514
954.938	0.0152326
955.016	0.0153252
955.094	0.0152431
955.173	0.0153268
955.251	0.0152998
955.329	0.0152225
955.407	0.0152421
955.485	0.0152107
955.563	0.0151865
955.641	0.0153430
955.719	0.0152802
955.798	0.0151380
955.876	0.0151636
955.954	0.0150947
956.032	0.0151347
956.110	0.0152753
956.188	0.0152103
956.266	0.0150207
956.344	0.0151696
956.423	0.0150764
956.501	0.0151210
956.579	0.0150124
956.657	0.0150726
956.735	0.0150826
956.813	0.0152301
956.891	0.0152222
956.969	0.0151842
957.048	0.0150444
957.126	0.0150081
957.204	0.0151411
957.282	0.0150944
957.360	0.0150002
957.438	0.0151913
957.516	0.0152666
957.594	0.0152666
957.673	0.0152332
957.751	0.0153130
957.829	0.0151612
957.907	0.0151338
957.985	0.0152658
958.063	0.0154549
958.141	0.0153608
958.219	0.0153115
958.298	0.0152904
958.376	0.0154055
958.454	0.0152870
958.532	0.0152831
958.610	0.0153568
958.688	0.0153330
958.766	0.0152226
958.844	0.0153352
958.923	0.0152174
959.001	0.0152530
959.079	0.0154234
959.157	0.0153631
959.235	0.0153941
959.313	0.0152909
959.391	0.0152956
959.469	0.0153112
959.548	0.0153448
959.626	0.0152467
959.704	0.0153672
959.782	0.0151869
959.860	0.0152855
959.938	0.0152586
960.016	0.0152801
960.094	0.0152692
960.173	0.0152395
960.251	0.0150956
960.329	0.0150828
960.407	0.0151537
960.485	0.0152283
960.563	0.0151190
960.641	0.0151366
960.719	0.0151768
960.798	0.0150755
960.876	0.0151366
960.954	0.0150150
961.032	0.0150843
961.110	0.0151425
961.188	0.0151932
961.266	0.0151244
961.344	0.0151511
961.423	0.0151584
961.501	0.0150513
961.579	0.0150277
961.657	0.0151228
961.735	0.0152390
961.813	0.0151102
961.891	0.0149678
961.969	0.0151544
962.048	0.0152139
962.126	0.0151282
962.204	0.0151624
962.282	0.0151376
962.360	0.0152470
962.438	0.0151257
962.516	0.0152676
962.594	0.0150894
962.673	0.0151945
962.751	0.0151234
962.829	0.0152608
962.907	0.0151457
962.985	0.0152055
963.063	0.0153265
963.141	0.0152058
963.219	0.0152546
963.298	0.0152882
963.376	0.0153172
963.454	0.0152866
963.532	0.0153101
963.610	0.0153185
963.688	0.0152377
963.766	0.0152615
963.844	0.0153239
963.923	0.0154212
964.001	0.0153439
964.079	0.0154008
964.157	0.0152697
964.235	0.0152991
964.313	0.0152595
964.391	0.0153205
964.469	0.0152398
964.548	0.0151669
964.626	0.0152491
964.704	0.0153957
964.782	0.0153548
964.860	0.0153320
964.938	0.0153996
965.016	0.0155146
965.094	0.0153696
965.173	0.0153661
965.251	0.0153433
965.329	0.0153437
965.407	0.0153497
965.485	0.0152169
965.563	0.0151350
965.641	0.0152141
965.719	0.0152307
965.798	0.0153407
965.876	0.0151113
965.954	0.0151200
966.032	0.0151125
966.110	0.0151575
966.188	0.0151741
966.266	0.0151394
966.344	0.0149838
966.423	0.0151601
966.501	0.0150643
966.579	0.0151534
966.657	0.0151015
966.735	0.0149063
966.813	0.0152245
966.891	0.0151476
966.969	0.0150772
967.048	0.0151678
967.126	0.0153136
967.204	0.0153671
967.282	0.0153122
967.360	0.0152865
967.438	0.0151495
967.516	0.0153528
967.594	0.0151572
967.673	0.0151703
967.751	0.0151596
967.829	0.0151098
967.907	0.0150022
967.985	0.0150821
968.063	0.0151099
968.141	0.0151318
968.219	0.0151746
968.298	0.0150247
968.376	0.0150979
968.454	0.0150408
968.532	0.0151289
968.610	0.0149848
968.688	0.0151955
968.766	0.0151152
968.844	0.0153091
968.923	0.0153690
969.001	0.0154389
969.079	0.0153855
969.157	0.0155058
969.235	0.0155399
969.313	0.0156893
969.391	0.0155225
969.469	0.0153924
969.548	0.0154720
969.626	0.0154926
969.704	0.0153541
969.782	0.0154233
969.860	0.0153735
969.938	0.0153717
