05/14/2022	19:06:09	Ver.	4.1	UNKNOWN
Optical Delay	650.016352	Delta X		0.078125	Sweeps	1	Scan Rate	0/0
Coordinates	Axis 1	NaN	Axis 2	NaN	Axis 3	NaN	Axis 4	NaN	Axis 5	NaN	Axis 6	0.000000
TX Power	0.000000	RX Power	0.000000

650.016	0.0151709
650.094	0.0151395
650.173	0.0153581
650.251	0.0151875
650.329	0.0150717
650.407	0.0151722
650.485	0.0151353
650.563	0.0151459
650.641	0.0151639
650.719	0.0152297
650.798	0.0152837
650.876	0.0151937
650.954	0.0152059
651.032	0.0151079
651.110	0.0152028
651.188	0.0152513
651.266	0.0151517
651.344	0.0151114
651.423	0.0151345
651.501	0.0151303
651.579	0.0152342
651.657	0.0152396
651.735	0.0151632
651.813	0.0151861
651.891	0.0152081
651.969	0.0152100
652.048	0.0150168
652.126	0.0152219
652.204	0.0152950
652.282	0.0151023
652.360	0.0151357
652.438	0.0151605
652.516	0.0152649
652.594	0.0151975
652.673	0.0151976
652.751	0.0152502
652.829	0.0151344
652.907	0.0151331
652.985	0.0151406
653.063	0.0152582
653.141	0.0151883
653.219	0.0152236
653.298	0.0151316
653.376	0.0151652
653.454	0.0152873
653.532	0.0153264
653.610	0.0151020
653.688	0.0150689
653.766	0.0153249
653.844	0.0151366
653.923	0.0151499
654.001	0.0150612
654.079	0.0151580
654.157	0.0151773
654.235	0.0152071
654.313	0.0150639
654.391	0.0151425
654.469	0.0151588
654.548	0.0151109
654.626	0.0152173
654.704	0.0151037
654.782	0.0151442
654.860	0.0151653
654.938	0.0151774
655.016	0.0152287
655.094	0.0152181
655.173	0.0152327
655.251	0.0150959
655.329	0.0150221
655.407	0.0151623
655.485	0.0151601
655.563	0.0149616
655.641	0.0150745
655.719	0.0151168
655.798	0.0151841
655.876	0.0151833
655.954	0.0151948
656.032	0.0152320
656.110	0.0150227
656.188	0.0150959
656.266	0.0151603
656.344	0.0150420
656.423	0.0151825
656.501	0.0151784
656.579	0.0151372
656.657	0.0151631
656.735	0.0152531
656.813	0.0151606
656.891	0.0150452
656.969	0.0150922
657.048	0.0151055
657.126	0.0151135
657.204	0.0150501
657.282	0.0150507
657.360	0.0152200
657.438	0.0151146
657.516	0.0153008
657.594	0.0150581
657.673	0.0152122
657.751	0.0151786
657.829	0.0152645
657.907	0.0151778
657.985	0.0151546
658.063	0.0151943
658.141	0.0151230
658.219	0.0150703
658.298	0.0149969
658.376	0.0152359
658.454	0.0153064
658.532	0.0152582
658.610	0.0151325
658.688	0.0151722
658.766	0.0151511
658.844	0.0151814
658.923	0.0152106
659.001	0.0151449
659.079	0.0151786
659.157	0.0150122
659.235	0.0151568
659.313	0.0152188
659.391	0.0150549
659.469	0.0151726
659.548	0.0151532
659.626	0.0151612
659.704	0.0153468
659.782	0.0152159
659.860	0.0151115
659.938	0.0151575
660.016	0.0152462
660.094	0.0151549
660.173	0.0150704
660.251	0.0152682
660.329	0.0151461
660.407	0.0150185
660.485	0.0150537
660.563	0.0153485
660.641	0.0152085
660.719	0.0151666
660.798	0.0153214
660.876	0.0151469
660.954	0.0152176
661.032	0.0152156
661.110	0.0150986
661.188	0.0152102
661.266	0.0151232
661.344	0.0151447
661.423	0.0152618
661.501	0.0152888
661.579	0.0151588
661.657	0.0151351
661.735	0.0151940
661.813	0.0151672
661.891	0.0151226
661.969	0.0151128
662.048	0.0151941
662.126	0.0151405
662.204	0.0150939
662.282	0.0152063
662.360	0.0151180
662.438	0.0150858
662.516	0.0151399
662.594	0.0152557
662.673	0.0152996
662.751	0.0153194
662.829	0.0151649
662.907	0.0151625
662.985	0.0151963
663.063	0.0151927
663.141	0.0150949
663.219	0.0152924
663.298	0.0153848
663.376	0.0150888
663.454	0.0149249
663.532	0.0152112
663.610	0.0152379
663.688	0.0151335
663.766	0.0150157
663.844	0.0152067
663.923	0.0151285
664.001	0.0149659
664.079	0.0152152
664.157	0.0152522
664.235	0.0151427
664.313	0.0151200
664.391	0.0153869
664.469	0.0151019
664.548	0.0152139
664.626	0.0151731
664.704	0.0150600
664.782	0.0152046
664.860	0.0151344
664.938	0.0151539
665.016	0.0151855
665.094	0.0151900
665.173	0.0152023
665.251	0.0151485
665.329	0.0152077
665.407	0.0151354
665.485	0.0152487
665.563	0.0152006
665.641	0.0152576
665.719	0.0151190
665.798	0.0150819
665.876	0.0152049
665.954	0.0150591
666.032	0.0151901
666.110	0.0151594
666.188	0.0150806
666.266	0.0151866
666.344	0.0152619
666.423	0.0151102
666.501	0.0150798
666.579	0.0152898
666.657	0.0151481
666.735	0.0151758
666.813	0.0152095
666.891	0.0151950
666.969	0.0152227
667.048	0.0151526
667.126	0.0152588
667.204	0.0151755
667.282	0.0151852
667.360	0.0151575
667.438	0.0151091
667.516	0.0151858
667.594	0.0149664
667.673	0.0150708
667.751	0.0153141
667.829	0.0153220
667.907	0.0152399
667.985	0.0151414
668.063	0.0151707
668.141	0.0151735
668.219	0.0153108
668.298	0.0151054
668.376	0.0152267
668.454	0.0151699
668.532	0.0151486
668.610	0.0151015
668.688	0.0151966
668.766	0.0151225
668.844	0.0151917
668.923	0.0151619
669.001	0.0151434
669.079	0.0151976
669.157	0.0151115
669.235	0.0151123
669.313	0.0153167
669.391	0.0152409
669.469	0.0152538
669.548	0.0151958
669.626	0.0151703
669.704	0.0151411
669.782	0.0150460
669.860	0.0152454
669.938	0.0151215
670.016	0.0153445
670.094	0.0153095
670.173	0.0152830
670.251	0.0151308
670.329	0.0150468
670.407	0.0151960
670.485	0.0152559
670.563	0.0151217
670.641	0.0152883
670.719	0.0152181
670.798	0.0149992
670.876	0.0150874
670.954	0.0151834
671.032	0.0153531
671.110	0.0152731
671.188	0.0152306
671.266	0.0152283
671.344	0.0150883
671.423	0.0151171
671.501	0.0152314
671.579	0.0152080
671.657	0.0150574
671.735	0.0150920
671.813	0.0151425
671.891	0.0152240
671.969	0.0150838
672.048	0.0152001
672.126	0.0152319
672.204	0.0151091
672.282	0.0151497
672.360	0.0151675
672.438	0.0152718
672.516	0.0151459
672.594	0.0150259
672.673	0.0151617
672.751	0.0151582
672.829	0.0151009
672.907	0.0150485
672.985	0.0150312
673.063	0.0151788
673.141	0.0150416
673.219	0.0151442
673.298	0.0150600
673.376	0.0151072
673.454	0.0151371
673.532	0.0150984
673.610	0.0150802
673.688	0.0151727
673.766	0.0150989
673.844	0.0151598
673.923	0.0150992
674.001	0.0149931
674.079	0.0151281
674.157	0.0150475
674.235	0.0150071
674.313	0.0150529
674.391	0.0150826
674.469	0.0150623
674.548	0.0150456
674.626	0.0151266
674.704	0.0150768
674.782	0.0149309
674.860	0.0150120
674.938	0.0150604
675.016	0.0150718
675.094	0.0150082
675.173	0.0150568
675.251	0.0150391
675.329	0.0151160
675.407	0.0150651
675.485	0.0149780
675.563	0.0149445
675.641	0.0150754
675.719	0.0149724
675.798	0.0150961
675.876	0.0150065
675.954	0.0150037
676.032	0.0149936
676.110	0.0150356
676.188	0.0151145
676.266	0.0149245
676.344	0.0150479
676.423	0.0149927
676.501	0.0150045
676.579	0.0150732
676.657	0.0150240
676.735	0.0151079
676.813	0.0151265
676.891	0.0151888
676.969	0.0150223
677.048	0.0152053
677.126	0.0151978
677.204	0.0149884
677.282	0.0151225
677.360	0.0150596
677.438	0.0151999
677.516	0.0151029
677.594	0.0151697
677.673	0.0150321
677.751	0.0151473
677.829	0.0151478
677.907	0.0151732
677.985	0.0150752
678.063	0.0150844
678.141	0.0150919
678.219	0.0150896
678.298	0.0151597
678.376	0.0151917
678.454	0.0151360
678.532	0.0152689
678.610	0.0153548
678.688	0.0153403
678.766	0.0151445
678.844	0.0151632
678.923	0.0152425
679.001	0.0153513
679.079	0.0151397
679.157	0.0152567
679.235	0.0150964
679.313	0.0152275
679.391	0.0152775
679.469	0.0153418
679.548	0.0152924
679.626	0.0152460
679.704	0.0152555
679.782	0.0152640
679.860	0.0152824
679.938	0.0152890
680.016	0.0152232
680.094	0.0152560
680.173	0.0152769
680.251	0.0152943
680.329	0.0152503
680.407	0.0152895
680.485	0.0151705
680.563	0.0152602
680.641	0.0152736
680.719	0.0152897
680.798	0.0153927
680.876	0.0153553
680.954	0.0152551
681.032	0.0153223
681.110	0.0152418
681.188	0.0151595
681.266	0.0153014
681.344	0.0154261
681.423	0.0152918
681.501	0.0151621
681.579	0.0151257
681.657	0.0151814
681.735	0.0152763
681.813	0.0152283
681.891	0.0152551
681.969	0.0151112
682.048	0.0152122
682.126	0.0152982
682.204	0.0151987
682.282	0.0152042
682.360	0.0153239
682.438	0.0152387
682.516	0.0151429
682.594	0.0153503
682.673	0.0153632
682.751	0.0152686
682.829	0.0151671
682.907	0.0151089
682.985	0.0150479
683.063	0.0152174
683.141	0.0153165
683.219	0.0153455
683.298	0.0151855
683.376	0.0153689
683.454	0.0152612
683.532	0.0152479
683.610	0.0151680
683.688	0.0153356
683.766	0.0151724
683.844	0.0152537
683.923	0.0152711
684.001	0.0152404
684.079	0.0152902
684.157	0.0152749
684.235	0.0151428
684.313	0.0150910
684.391	0.0151316
684.469	0.0151171
684.548	0.0151933
684.626	0.0152999
684.704	0.0152697
684.782	0.0152530
684.860	0.0150999
684.938	0.0150978
685.016	0.0151717
685.094	0.0151531
685.173	0.0151822
685.251	0.0150535
685.329	0.0151830
685.407	0.0150072
685.485	0.0151112
685.563	0.0151040
685.641	0.0150585
685.719	0.0151209
685.798	0.0151173
685.876	0.0150974
685.954	0.0151780
686.032	0.0150005
686.110	0.0151617
686.188	0.0150641
686.266	0.0152670
686.344	0.0150512
686.423	0.0151999
686.501	0.0151561
686.579	0.0150391
686.657	0.0151923
686.735	0.0150936
686.813	0.0150896
686.891	0.0151123
686.969	0.0151920
687.048	0.0150885
687.126	0.0151494
687.204	0.0149829
687.282	0.0151222
687.360	0.0153324
687.438	0.0151740
687.516	0.0151531
687.594	0.0151413
687.673	0.0151133
687.751	0.0151280
687.829	0.0150625
687.907	0.0151556
687.985	0.0151803
688.063	0.0152391
688.141	0.0150703
688.219	0.0151630
688.298	0.0152049
688.376	0.0151467
688.454	0.0151561
688.532	0.0150954
688.610	0.0151468
688.688	0.0151068
688.766	0.0150991
688.844	0.0150845
688.923	0.0151671
689.001	0.0150648
689.079	0.0151694
689.157	0.0152508
689.235	0.0150426
689.313	0.0151660
689.391	0.0151156
689.469	0.0151599
689.548	0.0151922
689.626	0.0151290
689.704	0.0151492
689.782	0.0151144
689.860	0.0152615
689.938	0.0151842
690.016	0.0151443
690.094	0.0150469
690.173	0.0150873
690.251	0.0150465
690.329	0.0150305
690.407	0.0151093
690.485	0.0151483
690.563	0.0151913
690.641	0.0153172
690.719	0.0153220
690.798	0.0155753
690.876	0.0155669
690.954	0.0156715
691.032	0.0157001
691.110	0.0155320
691.188	0.0154515
691.266	0.0151635
691.344	0.0150262
691.423	0.0148333
691.501	0.0146627
691.579	0.0146712
691.657	0.0145257
691.735	0.0145106
691.813	0.0146981
691.891	0.0148726
691.969	0.0150123
692.048	0.0152075
692.126	0.0154012
692.204	0.0155459
692.282	0.0158807
692.360	0.0158913
692.438	0.0161320
692.516	0.0160851
692.594	0.0159734
692.673	0.0158951
692.751	0.0157281
692.829	0.0154537
692.907	0.0152603
692.985	0.0150206
693.063	0.0146696
693.141	0.0145654
693.219	0.0143977
693.298	0.0142188
693.376	0.0141841
693.454	0.0140777
693.532	0.0143140
693.610	0.0142628
693.688	0.0144679
693.766	0.0145978
693.844	0.0147684
693.923	0.0150863
694.001	0.0152661
694.079	0.0155310
694.157	0.0156493
694.235	0.0157071
694.313	0.0160020
694.391	0.0159168
694.469	0.0159324
694.548	0.0160953
694.626	0.0160658
694.704	0.0160524
694.782	0.0160563
694.860	0.0159411
694.938	0.0159408
695.016	0.0156491
695.094	0.0154987
695.173	0.0153693
695.251	0.0153412
695.329	0.0151108
695.407	0.0146636
695.485	0.0146550
695.563	0.0145405
695.641	0.0142326
695.719	0.0142884
695.798	0.0142221
695.876	0.0139967
695.954	0.0139887
696.032	0.0138399
696.110	0.0139345
696.188	0.0138927
696.266	0.0141776
696.344	0.0142455
696.423	0.0144573
696.501	0.0145494
696.579	0.0148435
696.657	0.0150056
696.735	0.0152436
696.813	0.0155159
696.891	0.0158508
696.969	0.0159229
697.048	0.0162448
697.126	0.0163836
697.204	0.0164909
697.282	0.0165921
697.360	0.0165622
697.438	0.0166417
697.516	0.0164328
697.594	0.0163945
697.673	0.0162785
697.751	0.0160320
697.829	0.0157203
697.907	0.0156396
697.985	0.0152766
698.063	0.0150635
698.141	0.0148666
698.219	0.0144351
698.298	0.0144669
698.376	0.0142000
698.454	0.0139812
698.532	0.0139069
698.610	0.0138312
698.688	0.0137901
698.766	0.0137570
698.844	0.0138441
698.923	0.0138927
699.001	0.0138162
699.079	0.0141296
699.157	0.0141116
699.235	0.0143311
699.313	0.0144745
699.391	0.0147243
699.469	0.0149036
699.548	0.0150981
699.626	0.0151747
699.704	0.0152840
699.782	0.0154331
699.860	0.0154501
699.938	0.0156300
700.016	0.0158585
700.094	0.0158885
700.173	0.0158638
700.251	0.0160361
700.329	0.0160846
700.407	0.0161674
700.485	0.0160970
700.563	0.0161720
700.641	0.0161656
700.719	0.0159998
700.798	0.0160297
700.876	0.0161629
700.954	0.0160577
701.032	0.0159491
701.110	0.0157772
701.188	0.0157298
701.266	0.0155063
701.344	0.0154012
701.423	0.0152416
701.501	0.0151017
701.579	0.0150484
701.657	0.0148064
701.735	0.0145613
701.813	0.0145876
701.891	0.0144843
701.969	0.0142492
702.048	0.0140991
702.126	0.0141073
702.204	0.0140202
702.282	0.0139546
702.360	0.0140718
702.438	0.0138184
702.516	0.0139711
702.594	0.0141375
702.673	0.0139935
702.751	0.0140376
702.829	0.0142863
702.907	0.0143681
702.985	0.0145390
703.063	0.0146352
703.141	0.0147006
703.219	0.0149714
703.298	0.0151331
703.376	0.0153999
703.454	0.0156313
703.532	0.0156357
703.610	0.0158065
703.688	0.0159068
703.766	0.0159985
703.844	0.0161237
703.923	0.0160913
704.001	0.0160664
704.079	0.0161211
704.157	0.0160016
704.235	0.0161652
704.313	0.0161068
704.391	0.0160247
704.469	0.0159997
704.548	0.0158718
704.626	0.0158366
704.704	0.0160156
704.782	0.0158650
704.860	0.0159011
704.938	0.0156802
705.016	0.0154045
705.094	0.0154182
705.173	0.0153168
705.251	0.0151260
705.329	0.0150339
705.407	0.0149519
705.485	0.0148853
705.563	0.0147404
705.641	0.0146818
705.719	0.0146310
705.798	0.0145394
705.876	0.0144942
705.954	0.0145009
706.032	0.0143941
706.110	0.0144112
706.188	0.0143723
706.266	0.0143652
706.344	0.0142818
706.423	0.0142548
706.501	0.0142860
706.579	0.0144997
706.657	0.0142896
706.735	0.0143754
706.813	0.0145733
706.891	0.0145860
706.969	0.0146162
707.048	0.0145888
707.126	0.0148114
707.204	0.0149049
707.282	0.0151859
707.360	0.0153045
707.438	0.0154420
707.516	0.0157185
707.594	0.0158440
707.673	0.0158416
707.751	0.0159835
707.829	0.0160303
707.907	0.0161161
707.985	0.0160823
708.063	0.0161322
708.141	0.0161171
708.219	0.0160688
708.298	0.0158884
708.376	0.0157253
708.454	0.0157622
708.532	0.0156773
708.610	0.0156982
708.688	0.0155322
708.766	0.0154490
708.844	0.0154478
708.923	0.0153816
709.001	0.0151743
709.079	0.0150332
709.157	0.0151727
709.235	0.0152302
709.313	0.0151532
709.391	0.0150661
709.469	0.0151173
709.548	0.0149909
709.626	0.0147938
709.704	0.0148862
709.782	0.0150327
709.860	0.0148714
709.938	0.0149466
710.016	0.0147930
710.094	0.0149265
710.173	0.0147766
710.251	0.0148016
710.329	0.0150433
710.407	0.0149494
710.485	0.0149141
710.563	0.0148804
710.641	0.0149379
710.719	0.0149663
710.798	0.0148872
710.876	0.0147973
710.954	0.0149122
711.032	0.0149301
711.110	0.0147977
711.188	0.0149244
711.266	0.0148833
711.344	0.0149026
711.423	0.0150066
711.501	0.0149492
711.579	0.0148455
711.657	0.0151113
711.735	0.0150413
711.813	0.0149348
711.891	0.0151005
711.969	0.0151908
712.048	0.0149774
712.126	0.0151138
712.204	0.0150665
712.282	0.0152262
712.360	0.0152435
712.438	0.0153036
712.516	0.0153080
712.594	0.0153815
712.673	0.0154736
712.751	0.0153934
712.829	0.0155315
712.907	0.0155059
712.985	0.0155054
713.063	0.0153626
713.141	0.0155009
713.219	0.0155260
713.298	0.0155318
713.376	0.0153424
713.454	0.0153799
713.532	0.0155468
713.610	0.0154100
713.688	0.0154086
713.766	0.0152572
713.844	0.0152063
713.923	0.0152628
714.001	0.0153361
714.079	0.0153432
714.157	0.0153072
714.235	0.0152729
714.313	0.0150529
714.391	0.0151149
714.469	0.0152455
714.548	0.0151186
714.626	0.0151624
714.704	0.0152119
714.782	0.0150826
714.860	0.0149792
714.938	0.0150267
715.016	0.0149263
715.094	0.0148125
715.173	0.0147713
715.251	0.0148253
715.329	0.0148615
715.407	0.0148340
715.485	0.0148392
715.563	0.0148282
715.641	0.0147871
715.719	0.0148118
715.798	0.0147128
715.876	0.0148259
715.954	0.0148833
716.032	0.0148096
716.110	0.0149509
716.188	0.0149235
716.266	0.0150946
716.344	0.0150909
716.423	0.0151041
716.501	0.0151730
716.579	0.0152216
716.657	0.0152355
716.735	0.0152386
716.813	0.0152976
716.891	0.0152879
716.969	0.0152578
717.048	0.0152428
717.126	0.0154410
717.204	0.0153394
717.282	0.0154642
717.360	0.0154923
717.438	0.0153851
717.516	0.0154679
717.594	0.0154302
717.673	0.0154720
717.751	0.0153152
717.829	0.0155429
717.907	0.0156120
717.985	0.0155299
718.063	0.0155908
718.141	0.0157088
718.219	0.0155523
718.298	0.0155306
718.376	0.0156251
718.454	0.0154643
718.532	0.0154755
718.610	0.0154816
718.688	0.0153530
718.766	0.0152843
718.844	0.0152774
718.923	0.0151765
719.001	0.0152072
719.079	0.0150541
719.157	0.0150283
719.235	0.0150844
719.313	0.0149437
719.391	0.0148725
719.469	0.0150242
719.548	0.0149306
719.626	0.0148718
719.704	0.0149340
719.782	0.0148815
719.860	0.0148763
719.938	0.0148389
720.016	0.0149075
720.094	0.0149998
720.173	0.0149319
720.251	0.0150084
720.329	0.0148928
720.407	0.0149220
720.485	0.0149889
720.563	0.0149442
720.641	0.0150208
720.719	0.0150196
720.798	0.0150041
720.876	0.0150188
720.954	0.0150839
721.032	0.0149795
721.110	0.0150491
721.188	0.0151884
721.266	0.0152448
721.344	0.0152885
721.423	0.0153097
721.501	0.0152033
721.579	0.0151817
721.657	0.0152686
721.735	0.0153278
721.813	0.0152251
721.891	0.0154240
721.969	0.0152242
722.048	0.0153920
722.126	0.0153982
722.204	0.0152176
722.282	0.0152975
722.360	0.0152921
722.438	0.0151509
722.516	0.0152051
722.594	0.0150913
722.673	0.0151347
722.751	0.0152003
722.829	0.0151238
722.907	0.0151030
722.985	0.0151653
723.063	0.0151222
723.141	0.0151441
723.219	0.0151237
723.298	0.0151649
723.376	0.0150636
723.454	0.0152169
723.532	0.0152702
723.610	0.0152332
723.688	0.0151697
723.766	0.0152884
723.844	0.0152800
723.923	0.0153275
724.001	0.0152985
724.079	0.0151022
724.157	0.0151220
724.235	0.0152415
724.313	0.0152286
724.391	0.0151189
724.469	0.0150500
724.548	0.0152850
724.626	0.0150752
724.704	0.0151704
724.782	0.0149223
724.860	0.0149607
724.938	0.0149934
725.016	0.0149677
725.094	0.0150437
725.173	0.0149722
725.251	0.0149467
725.329	0.0150199
725.407	0.0148515
725.485	0.0149097
725.563	0.0149485
725.641	0.0148048
725.719	0.0149039
725.798	0.0150050
725.876	0.0149733
725.954	0.0149063
726.032	0.0149658
726.110	0.0150085
726.188	0.0149355
726.266	0.0150726
726.344	0.0149857
726.423	0.0149701
726.501	0.0150766
726.579	0.0150562
726.657	0.0148515
726.735	0.0151382
726.813	0.0149402
726.891	0.0151355
726.969	0.0151076
727.048	0.0151598
727.126	0.0152219
727.204	0.0152876
727.282	0.0151215
727.360	0.0152059
727.438	0.0153944
727.516	0.0153731
727.594	0.0153447
727.673	0.0152615
727.751	0.0153522
727.829	0.0153445
727.907	0.0152293
727.985	0.0151549
728.063	0.0151353
728.141	0.0149134
728.219	0.0148415
728.298	0.0149382
728.376	0.0147688
728.454	0.0149968
728.532	0.0150255
728.610	0.0148927
728.688	0.0149098
728.766	0.0149852
728.844	0.0150058
728.923	0.0149461
729.001	0.0151539
729.079	0.0151894
729.157	0.0150897
729.235	0.0150505
729.313	0.0152184
729.391	0.0154102
729.469	0.0154178
729.548	0.0152594
729.626	0.0153645
729.704	0.0154236
729.782	0.0152078
729.860	0.0154312
729.938	0.0152498
730.016	0.0154131
730.094	0.0152310
730.173	0.0152083
730.251	0.0152679
730.329	0.0153032
730.407	0.0152084
730.485	0.0151205
730.563	0.0151174
730.641	0.0150369
730.719	0.0151156
730.798	0.0151779
730.876	0.0150539
730.954	0.0150684
731.032	0.0151263
731.110	0.0150069
731.188	0.0150472
731.266	0.0151544
731.344	0.0151711
731.423	0.0150529
731.501	0.0151389
731.579	0.0151051
731.657	0.0150035
731.735	0.0150552
731.813	0.0151501
731.891	0.0150962
731.969	0.0149934
732.048	0.0151965
732.126	0.0151660
732.204	0.0150858
732.282	0.0151171
732.360	0.0151189
732.438	0.0151405
732.516	0.0152721
732.594	0.0152477
732.673	0.0151370
732.751	0.0150835
732.829	0.0150871
732.907	0.0150939
732.985	0.0150870
733.063	0.0151353
733.141	0.0152489
733.219	0.0152139
733.298	0.0151975
733.376	0.0151616
733.454	0.0152138
733.532	0.0150515
733.610	0.0151357
733.688	0.0152559
733.766	0.0151530
733.844	0.0150725
733.923	0.0151159
734.001	0.0151584
734.079	0.0151904
734.157	0.0152039
734.235	0.0151722
734.313	0.0150687
734.391	0.0151284
734.469	0.0151109
734.548	0.0151920
734.626	0.0151931
734.704	0.0151283
734.782	0.0151690
734.860	0.0151282
734.938	0.0151157
735.016	0.0150571
735.094	0.0151826
735.173	0.0151273
735.251	0.0152686
735.329	0.0151324
735.407	0.0152547
735.485	0.0151684
735.563	0.0151888
735.641	0.0151653
735.719	0.0152095
735.798	0.0151334
735.876	0.0152283
735.954	0.0151610
736.032	0.0152396
736.110	0.0152225
736.188	0.0151581
736.266	0.0151265
736.344	0.0150084
736.423	0.0150600
736.501	0.0151852
736.579	0.0150603
736.657	0.0150065
736.735	0.0150544
736.813	0.0149480
736.891	0.0149357
736.969	0.0149622
737.048	0.0150265
737.126	0.0150233
737.204	0.0149851
737.282	0.0148779
737.360	0.0149605
737.438	0.0150108
737.516	0.0149843
737.594	0.0149476
737.673	0.0149445
737.751	0.0149594
737.829	0.0149770
737.907	0.0150603
737.985	0.0151263
738.063	0.0151033
738.141	0.0151900
738.219	0.0152411
738.298	0.0152868
738.376	0.0152998
738.454	0.0154245
738.532	0.0153005
738.610	0.0152421
738.688	0.0152441
738.766	0.0154184
738.844	0.0153729
738.923	0.0154377
739.001	0.0153020
739.079	0.0153526
739.157	0.0153743
739.235	0.0153104
739.313	0.0153094
739.391	0.0153329
739.469	0.0154693
739.548	0.0152027
739.626	0.0151791
739.704	0.0152030
739.782	0.0151926
739.860	0.0151317
739.938	0.0151432
740.016	0.0149746
740.094	0.0148528
740.173	0.0148756
740.251	0.0149467
740.329	0.0149168
740.407	0.0150114
740.485	0.0150621
740.563	0.0149399
740.641	0.0150268
740.719	0.0150690
740.798	0.0151248
740.876	0.0150886
740.954	0.0150729
741.032	0.0152460
741.110	0.0152644
741.188	0.0152369
741.266	0.0152771
741.344	0.0152375
741.423	0.0154847
741.501	0.0154100
741.579	0.0155259
741.657	0.0153568
741.735	0.0153096
741.813	0.0153928
741.891	0.0153553
741.969	0.0151746
742.048	0.0153600
742.126	0.0151750
742.204	0.0150097
742.282	0.0150851
742.360	0.0149157
742.438	0.0149930
742.516	0.0148074
742.594	0.0149847
742.673	0.0148664
742.751	0.0148376
742.829	0.0148760
742.907	0.0147313
742.985	0.0149155
743.063	0.0150192
743.141	0.0150562
743.219	0.0150330
743.298	0.0150927
743.376	0.0151585
743.454	0.0154169
743.532	0.0152486
743.610	0.0154107
743.688	0.0155292
743.766	0.0154715
743.844	0.0156456
743.923	0.0156594
744.001	0.0155253
744.079	0.0156386
744.157	0.0155289
744.235	0.0156307
744.313	0.0153957
744.391	0.0154192
744.469	0.0154211
744.548	0.0154784
744.626	0.0154099
744.704	0.0151659
744.782	0.0151997
744.860	0.0152344
744.938	0.0151985
745.016	0.0151872
745.094	0.0151221
745.173	0.0151544
745.251	0.0149679
745.329	0.0149754
745.407	0.0149261
745.485	0.0149744
745.563	0.0151070
745.641	0.0149780
745.719	0.0150661
745.798	0.0150468
745.876	0.0150928
745.954	0.0150918
746.032	0.0150033
746.110	0.0150780
746.188	0.0151333
746.266	0.0150359
746.344	0.0151846
746.423	0.0151396
746.501	0.0150411
746.579	0.0152233
746.657	0.0150857
746.735	0.0152032
746.813	0.0153050
746.891	0.0154575
746.969	0.0154801
747.048	0.0153754
747.126	0.0153624
747.204	0.0153790
747.282	0.0154974
747.360	0.0153934
747.438	0.0154008
747.516	0.0153987
747.594	0.0152571
747.673	0.0153447
747.751	0.0153185
747.829	0.0153170
747.907	0.0153359
747.985	0.0153755
748.063	0.0151845
748.141	0.0150665
748.219	0.0151771
748.298	0.0152505
748.376	0.0150150
748.454	0.0149863
748.532	0.0150104
748.610	0.0151376
748.688	0.0149104
748.766	0.0149247
748.844	0.0149832
748.923	0.0149426
749.001	0.0149794
749.079	0.0148860
749.157	0.0150266
749.235	0.0151077
749.313	0.0151178
749.391	0.0151389
749.469	0.0151975
749.548	0.0152052
749.626	0.0153188
749.704	0.0153448
749.782	0.0152924
749.860	0.0153629
749.938	0.0153681
750.016	0.0153735
750.094	0.0154439
750.173	0.0156015
750.251	0.0154515
750.329	0.0155013
750.407	0.0153696
750.485	0.0152817
750.563	0.0154639
750.641	0.0153857
750.719	0.0153928
750.798	0.0154427
750.876	0.0153062
750.954	0.0150997
751.032	0.0150494
751.110	0.0150793
751.188	0.0150703
751.266	0.0149530
751.344	0.0149040
751.423	0.0150400
751.501	0.0151798
751.579	0.0150002
751.657	0.0149879
751.735	0.0149670
751.813	0.0150091
751.891	0.0151254
751.969	0.0151075
752.048	0.0149487
752.126	0.0150258
752.204	0.0151819
752.282	0.0150990
752.360	0.0152139
752.438	0.0152425
752.516	0.0152305
752.594	0.0151815
752.673	0.0152092
752.751	0.0152190
752.829	0.0152018
752.907	0.0150462
752.985	0.0152399
753.063	0.0149756
753.141	0.0149494
753.219	0.0149734
753.298	0.0148819
753.376	0.0149054
753.454	0.0150109
753.532	0.0151222
753.610	0.0149353
753.688	0.0150295
753.766	0.0149980
753.844	0.0148354
753.923	0.0149610
754.001	0.0150557
754.079	0.0150632
754.157	0.0151025
754.235	0.0150154
754.313	0.0149552
754.391	0.0152477
754.469	0.0151206
754.548	0.0150585
754.626	0.0152195
754.704	0.0153687
754.782	0.0152985
754.860	0.0152130
754.938	0.0153491
755.016	0.0154247
755.094	0.0154507
755.173	0.0154558
755.251	0.0154663
755.329	0.0153584
755.407	0.0154929
755.485	0.0154242
755.563	0.0153820
755.641	0.0154766
755.719	0.0154353
755.798	0.0154073
755.876	0.0153169
755.954	0.0154266
756.032	0.0154226
756.110	0.0154879
756.188	0.0153893
756.266	0.0152964
756.344	0.0152789
756.423	0.0153773
756.501	0.0153604
756.579	0.0152337
756.657	0.0152148
756.735	0.0151470
756.813	0.0151736
756.891	0.0150946
756.969	0.0151981
757.048	0.0151079
757.126	0.0151800
757.204	0.0151035
757.282	0.0151369
757.360	0.0152081
757.438	0.0149501
757.516	0.0149595
757.594	0.0150451
757.673	0.0151019
757.751	0.0150318
757.829	0.0151521
757.907	0.0151678
757.985	0.0150641
758.063	0.0151162
758.141	0.0150844
758.219	0.0150961
758.298	0.0151456
758.376	0.0150792
758.454	0.0150883
758.532	0.0150907
758.610	0.0149783
758.688	0.0149244
758.766	0.0148805
758.844	0.0149757
758.923	0.0150327
759.001	0.0149738
759.079	0.0151154
759.157	0.0148965
759.235	0.0149704
759.313	0.0149286
759.391	0.0149345
759.469	0.0149789
759.548	0.0149438
759.626	0.0149684
759.704	0.0150885
759.782	0.0150639
759.860	0.0150858
759.938	0.0150365
760.016	0.0151352
760.094	0.0151705
760.173	0.0152019
760.251	0.0152695
760.329	0.0154626
760.407	0.0153094
760.485	0.0154677
760.563	0.0155421
760.641	0.0156050
760.719	0.0155154
760.798	0.0156534
760.876	0.0155844
760.954	0.0154517
761.032	0.0155225
761.110	0.0154057
761.188	0.0154536
761.266	0.0154890
761.344	0.0153969
761.423	0.0153715
761.501	0.0154440
761.579	0.0152478
761.657	0.0150186
761.735	0.0151101
761.813	0.0151862
761.891	0.0151392
761.969	0.0151172
762.048	0.0149844
762.126	0.0149719
762.204	0.0149871
762.282	0.0148377
762.360	0.0148939
762.438	0.0147803
762.516	0.0148104
762.594	0.0148889
762.673	0.0148170
762.751	0.0147285
762.829	0.0149275
762.907	0.0149055
762.985	0.0148685
763.063	0.0149586
763.141	0.0149679
763.219	0.0151094
763.298	0.0149917
763.376	0.0151365
763.454	0.0152513
763.532	0.0153049
763.610	0.0154586
763.688	0.0153273
763.766	0.0153059
763.844	0.0153759
763.923	0.0153732
764.001	0.0154464
764.079	0.0153915
764.157	0.0153548
764.235	0.0152652
764.313	0.0152148
764.391	0.0152166
764.469	0.0151430
764.548	0.0152069
764.626	0.0151337
764.704	0.0151713
764.782	0.0150946
764.860	0.0150351
764.938	0.0149070
765.016	0.0150160
765.094	0.0150932
765.173	0.0148685
765.251	0.0148798
765.329	0.0149588
765.407	0.0151022
765.485	0.0149717
765.563	0.0151199
765.641	0.0151470
765.719	0.0151546
765.798	0.0151328
765.876	0.0153391
765.954	0.0151955
766.032	0.0152410
766.110	0.0153343
766.188	0.0153684
766.266	0.0154687
766.344	0.0153108
766.423	0.0154405
766.501	0.0154195
766.579	0.0154236
766.657	0.0155204
766.735	0.0154845
766.813	0.0155199
766.891	0.0154881
766.969	0.0155458
767.048	0.0156241
767.126	0.0154443
767.204	0.0153831
767.282	0.0153169
767.360	0.0153106
767.438	0.0151543
767.516	0.0152216
767.594	0.0151582
767.673	0.0151080
767.751	0.0151492
767.829	0.0150481
767.907	0.0149258
767.985	0.0148366
768.063	0.0150335
768.141	0.0150513
768.219	0.0149788
768.298	0.0147968
768.376	0.0149387
768.454	0.0149170
768.532	0.0148576
768.610	0.0148981
768.688	0.0149643
768.766	0.0148620
768.844	0.0148738
768.923	0.0149573
769.001	0.0150471
769.079	0.0150367
769.157	0.0150616
769.235	0.0151164
769.313	0.0150944
769.391	0.0150021
769.469	0.0152308
769.548	0.0153023
769.626	0.0153515
769.704	0.0153289
769.782	0.0153912
769.860	0.0153452
769.938	0.0155000
770.016	0.0155231
770.094	0.0154326
770.173	0.0156023
770.251	0.0154940
770.329	0.0155024
770.407	0.0155340
770.485	0.0155986
770.563	0.0155853
770.641	0.0155328
770.719	0.0155492
770.798	0.0153487
770.876	0.0154636
770.954	0.0154670
771.032	0.0154863
771.110	0.0155354
771.188	0.0153486
771.266	0.0153896
771.344	0.0153696
771.423	0.0151544
771.501	0.0153207
771.579	0.0152515
771.657	0.0151778
771.735	0.0151487
771.813	0.0152412
771.891	0.0151527
771.969	0.0150336
772.048	0.0150278
772.126	0.0150897
772.204	0.0148969
772.282	0.0149441
772.360	0.0148449
772.438	0.0149348
772.516	0.0148882
772.594	0.0148749
772.673	0.0148379
772.751	0.0149642
772.829	0.0149412
772.907	0.0150148
772.985	0.0149123
773.063	0.0149470
773.141	0.0149478
773.219	0.0151560
773.298	0.0151156
773.376	0.0149709
773.454	0.0151591
773.532	0.0151067
773.610	0.0152344
773.688	0.0153450
773.766	0.0152702
773.844	0.0152911
773.923	0.0152863
774.001	0.0153088
774.079	0.0153989
774.157	0.0153291
774.235	0.0153423
774.313	0.0154552
774.391	0.0152618
774.469	0.0154636
774.548	0.0154438
774.626	0.0153049
774.704	0.0154440
774.782	0.0153921
774.860	0.0152666
774.938	0.0153777
775.016	0.0154498
775.094	0.0153635
775.173	0.0152795
775.251	0.0153770
775.329	0.0153164
775.407	0.0153474
775.485	0.0153784
775.563	0.0154186
775.641	0.0152454
775.719	0.0152431
775.798	0.0151868
775.876	0.0152119
775.954	0.0153266
776.032	0.0152995
776.110	0.0153247
776.188	0.0153991
776.266	0.0154219
776.344	0.0153925
776.423	0.0152333
776.501	0.0152584
776.579	0.0152822
776.657	0.0153489
776.735	0.0153168
776.813	0.0153348
776.891	0.0153323
776.969	0.0153663
777.048	0.0152857
777.126	0.0151987
777.204	0.0151120
777.282	0.0152157
777.360	0.0150849
777.438	0.0151897
777.516	0.0151441
777.594	0.0151134
777.673	0.0150033
777.751	0.0152316
777.829	0.0151341
777.907	0.0150259
777.985	0.0149712
778.063	0.0149944
778.141	0.0150896
778.219	0.0150657
778.298	0.0148578
778.376	0.0150765
778.454	0.0151318
778.532	0.0150142
778.610	0.0150925
778.688	0.0151433
778.766	0.0151871
778.844	0.0152332
778.923	0.0152086
779.001	0.0150425
779.079	0.0152094
779.157	0.0153188
779.235	0.0153675
779.313	0.0153878
779.391	0.0153229
779.469	0.0153741
779.548	0.0152966
779.626	0.0153224
779.704	0.0154034
779.782	0.0153990
779.860	0.0153139
779.938	0.0154430
780.016	0.0153539
780.094	0.0151392
780.173	0.0152285
780.251	0.0153924
780.329	0.0153622
780.407	0.0153213
780.485	0.0152419
780.563	0.0152863
780.641	0.0151803
780.719	0.0152919
780.798	0.0155312
780.876	0.0153764
780.954	0.0152856
781.032	0.0153027
781.110	0.0154434
781.188	0.0152490
781.266	0.0153648
781.344	0.0153312
781.423	0.0152812
781.501	0.0153410
781.579	0.0151281
781.657	0.0152108
781.735	0.0151855
781.813	0.0150932
781.891	0.0152312
781.969	0.0151751
782.048	0.0150510
782.126	0.0151859
782.204	0.0151138
782.282	0.0151093
782.360	0.0150278
782.438	0.0150233
782.516	0.0151140
782.594	0.0151675
782.673	0.0151797
782.751	0.0152369
782.829	0.0152827
782.907	0.0151604
782.985	0.0151441
783.063	0.0152779
783.141	0.0153011
783.219	0.0151470
783.298	0.0153481
783.376	0.0153201
783.454	0.0153111
783.532	0.0153286
783.610	0.0152550
783.688	0.0152050
783.766	0.0153266
783.844	0.0152074
783.923	0.0153431
784.001	0.0153236
784.079	0.0152961
784.157	0.0151966
784.235	0.0152306
784.313	0.0152904
784.391	0.0151767
784.469	0.0150244
784.548	0.0151200
784.626	0.0151167
784.704	0.0152307
784.782	0.0152998
784.860	0.0151551
784.938	0.0151038
785.016	0.0148618
785.094	0.0151719
785.173	0.0151374
785.251	0.0151030
785.329	0.0151440
785.407	0.0151622
785.485	0.0150233
785.563	0.0149480
785.641	0.0148980
785.719	0.0150130
785.798	0.0149587
785.876	0.0151211
785.954	0.0150452
786.032	0.0149602
786.110	0.0151764
786.188	0.0152140
786.266	0.0151682
786.344	0.0151664
786.423	0.0152082
786.501	0.0151759
786.579	0.0152063
786.657	0.0151704
786.735	0.0153536
786.813	0.0152274
786.891	0.0152692
786.969	0.0152348
787.048	0.0152269
787.126	0.0154218
787.204	0.0154997
787.282	0.0153189
787.360	0.0153807
787.438	0.0154435
787.516	0.0152967
787.594	0.0153467
787.673	0.0153909
787.751	0.0153903
787.829	0.0153392
787.907	0.0153603
787.985	0.0154736
788.063	0.0153928
788.141	0.0152476
788.219	0.0152173
788.298	0.0152779
788.376	0.0152408
788.454	0.0153487
788.532	0.0152252
788.610	0.0151162
788.688	0.0153169
788.766	0.0151761
788.844	0.0151410
788.923	0.0152446
789.001	0.0152641
789.079	0.0151117
789.157	0.0152087
789.235	0.0150903
789.313	0.0150964
789.391	0.0151235
789.469	0.0151832
789.548	0.0152914
789.626	0.0151558
789.704	0.0152143
789.782	0.0151669
789.860	0.0150426
789.938	0.0149998
790.016	0.0151130
790.094	0.0150351
790.173	0.0151132
790.251	0.0150848
790.329	0.0150967
790.407	0.0151393
790.485	0.0150629
790.563	0.0151949
790.641	0.0152174
790.719	0.0152544
790.798	0.0152904
790.876	0.0152510
790.954	0.0152644
791.032	0.0153548
791.110	0.0151884
791.188	0.0153682
791.266	0.0154211
791.344	0.0154556
791.423	0.0152721
791.501	0.0152525
791.579	0.0152954
791.657	0.0153598
791.735	0.0153307
791.813	0.0152306
791.891	0.0152261
791.969	0.0151615
792.048	0.0151596
792.126	0.0151879
792.204	0.0150833
792.282	0.0148904
792.360	0.0151530
792.438	0.0150043
792.516	0.0149261
792.594	0.0150716
792.673	0.0150320
792.751	0.0150031
792.829	0.0149376
792.907	0.0149510
792.985	0.0149719
793.063	0.0150768
793.141	0.0150806
793.219	0.0151806
793.298	0.0152377
793.376	0.0152311
793.454	0.0153615
793.532	0.0153866
793.610	0.0153355
793.688	0.0154046
793.766	0.0155695
793.844	0.0154651
793.923	0.0153451
794.001	0.0154730
794.079	0.0154491
794.157	0.0153457
794.235	0.0153301
794.313	0.0153334
794.391	0.0152557
794.469	0.0153176
794.548	0.0153039
794.626	0.0153066
794.704	0.0152607
794.782	0.0151589
794.860	0.0149890
794.938	0.0150770
795.016	0.0151623
795.094	0.0150650
795.173	0.0150428
795.251	0.0149422
795.329	0.0150245
795.407	0.0150861
795.485	0.0152066
795.563	0.0149938
795.641	0.0150595
795.719	0.0151748
795.798	0.0151028
795.876	0.0152117
795.954	0.0149352
796.032	0.0151653
796.110	0.0152992
796.188	0.0151772
796.266	0.0152974
796.344	0.0152660
796.423	0.0152878
796.501	0.0153512
796.579	0.0151864
796.657	0.0152348
796.735	0.0153581
796.813	0.0153447
796.891	0.0153743
796.969	0.0153155
797.048	0.0154057
797.126	0.0151832
797.204	0.0153256
797.282	0.0154395
797.360	0.0154285
797.438	0.0154389
797.516	0.0154594
797.594	0.0154362
797.673	0.0153482
797.751	0.0153149
797.829	0.0154160
797.907	0.0153819
797.985	0.0151385
798.063	0.0151789
798.141	0.0153034
798.219	0.0150246
798.298	0.0150951
798.376	0.0150384
798.454	0.0149905
798.532	0.0149033
798.610	0.0150127
798.688	0.0148202
798.766	0.0148514
798.844	0.0148673
798.923	0.0147655
799.001	0.0147719
799.079	0.0145990
799.157	0.0147759
799.235	0.0148454
799.313	0.0148653
799.391	0.0149062
799.469	0.0148441
799.548	0.0148068
799.626	0.0149414
799.704	0.0150832
799.782	0.0151340
799.860	0.0151011
799.938	0.0153452
800.016	0.0152579
800.094	0.0152657
800.173	0.0152999
800.251	0.0154417
800.329	0.0153806
800.407	0.0155104
800.485	0.0155326
800.563	0.0155920
800.641	0.0154431
800.719	0.0154910
800.798	0.0156765
800.876	0.0155701
800.954	0.0156060
801.032	0.0155724
801.110	0.0155116
801.188	0.0154803
801.266	0.0154874
801.344	0.0154182
801.423	0.0154430
801.501	0.0155237
801.579	0.0152780
801.657	0.0152673
801.735	0.0153104
801.813	0.0151648
801.891	0.0152734
801.969	0.0151859
802.048	0.0151547
802.126	0.0152149
802.204	0.0151253
802.282	0.0151346
802.360	0.0150885
802.438	0.0150611
802.516	0.0152625
802.594	0.0150966
802.673	0.0150084
802.751	0.0151035
802.829	0.0150999
802.907	0.0150069
802.985	0.0149239
803.063	0.0150817
803.141	0.0150044
803.219	0.0150681
803.298	0.0150925
803.376	0.0150721
803.454	0.0151237
803.532	0.0152765
803.610	0.0151652
803.688	0.0151810
803.766	0.0150011
803.844	0.0152544
803.923	0.0151756
804.001	0.0153301
804.079	0.0151922
804.157	0.0151140
804.235	0.0151360
804.313	0.0153468
804.391	0.0152229
804.469	0.0151904
804.548	0.0151981
804.626	0.0151265
804.704	0.0151922
804.782	0.0151483
804.860	0.0152602
804.938	0.0150761
805.016	0.0151457
805.094	0.0151655
805.173	0.0150658
805.251	0.0151921
805.329	0.0151121
805.407	0.0151228
805.485	0.0151073
805.563	0.0150603
805.641	0.0150417
805.719	0.0152586
805.798	0.0153050
805.876	0.0153400
805.954	0.0153442
806.032	0.0152707
806.110	0.0152374
806.188	0.0154320
806.266	0.0154127
806.344	0.0153623
806.423	0.0152547
806.501	0.0152827
806.579	0.0152932
806.657	0.0152951
806.735	0.0153721
806.813	0.0153154
806.891	0.0152782
806.969	0.0152951
807.048	0.0150533
807.126	0.0151723
807.204	0.0150695
807.282	0.0149963
807.360	0.0151190
807.438	0.0152293
807.516	0.0150994
807.594	0.0151682
807.673	0.0151369
807.751	0.0150278
807.829	0.0150706
807.907	0.0150789
807.985	0.0151025
808.063	0.0150972
808.141	0.0151173
808.219	0.0151656
808.298	0.0151340
808.376	0.0150036
808.454	0.0150968
808.532	0.0152007
808.610	0.0152550
808.688	0.0152829
808.766	0.0151381
808.844	0.0152742
808.923	0.0153169
809.001	0.0152982
809.079	0.0151791
809.157	0.0150702
809.235	0.0152642
809.313	0.0153305
809.391	0.0153252
809.469	0.0152873
809.548	0.0152169
809.626	0.0152872
809.704	0.0153285
809.782	0.0152997
809.860	0.0151434
809.938	0.0151211
810.016	0.0150548
810.094	0.0151167
810.173	0.0150220
810.251	0.0150617
810.329	0.0149701
810.407	0.0150659
810.485	0.0149711
810.563	0.0150179
810.641	0.0149184
810.719	0.0148911
810.798	0.0149841
810.876	0.0149702
810.954	0.0150519
811.032	0.0149696
811.110	0.0149216
811.188	0.0149263
811.266	0.0150610
811.344	0.0152356
811.423	0.0150206
811.501	0.0150453
811.579	0.0153030
811.657	0.0152853
811.735	0.0152765
811.813	0.0151161
811.891	0.0151527
811.969	0.0153470
812.048	0.0154409
812.126	0.0152275
812.204	0.0153405
812.282	0.0154649
812.360	0.0153819
812.438	0.0154139
812.516	0.0152882
812.594	0.0152834
812.673	0.0152798
812.751	0.0151730
812.829	0.0152695
812.907	0.0153246
812.985	0.0152082
813.063	0.0152097
813.141	0.0151193
813.219	0.0151625
813.298	0.0152448
813.376	0.0151334
813.454	0.0150576
813.532	0.0151268
813.610	0.0150175
813.688	0.0151707
813.766	0.0151833
813.844	0.0150626
813.923	0.0151591
814.001	0.0150965
814.079	0.0151070
814.157	0.0151273
814.235	0.0152662
814.313	0.0150082
814.391	0.0151720
814.469	0.0153564
814.548	0.0153159
814.626	0.0152489
814.704	0.0152911
814.782	0.0153535
814.860	0.0154134
814.938	0.0152636
815.016	0.0151990
815.094	0.0152863
815.173	0.0151910
815.251	0.0152717
815.329	0.0153145
815.407	0.0153081
815.485	0.0153767
815.563	0.0152523
815.641	0.0152580
815.719	0.0152150
815.798	0.0153318
815.876	0.0151766
815.954	0.0150213
816.032	0.0151287
816.110	0.0150923
816.188	0.0151095
816.266	0.0151757
816.344	0.0150970
816.423	0.0150606
816.501	0.0151857
816.579	0.0152734
816.657	0.0151670
816.735	0.0152049
816.813	0.0151064
816.891	0.0152175
816.969	0.0151874
817.048	0.0151176
817.126	0.0153244
817.204	0.0152802
817.282	0.0153216
817.360	0.0151888
817.438	0.0153666
817.516	0.0152210
817.594	0.0152687
817.673	0.0153652
817.751	0.0152509
817.829	0.0152856
817.907	0.0152412
817.985	0.0151711
818.063	0.0152644
818.141	0.0152392
818.219	0.0150726
818.298	0.0150970
818.376	0.0150601
818.454	0.0150795
818.532	0.0150513
818.610	0.0148377
818.688	0.0149983
818.766	0.0151527
818.844	0.0150150
818.923	0.0150160
819.001	0.0149081
819.079	0.0148082
819.157	0.0148988
819.235	0.0148801
819.313	0.0149644
819.391	0.0148631
819.469	0.0149136
819.548	0.0150016
819.626	0.0148923
819.704	0.0150577
819.782	0.0150900
819.860	0.0149472
819.938	0.0150965
820.016	0.0149974
820.094	0.0151061
820.173	0.0150792
820.251	0.0151107
820.329	0.0150539
820.407	0.0152069
820.485	0.0153263
820.563	0.0152927
820.641	0.0152956
820.719	0.0153203
820.798	0.0153269
820.876	0.0153392
820.954	0.0153902
821.032	0.0154208
821.110	0.0154921
821.188	0.0155392
821.266	0.0155873
821.344	0.0155429
821.423	0.0156697
821.501	0.0155823
821.579	0.0155546
821.657	0.0153741
821.735	0.0154545
821.813	0.0153793
821.891	0.0154763
821.969	0.0154948
822.048	0.0153518
822.126	0.0152437
822.204	0.0152959
822.282	0.0153201
822.360	0.0151413
822.438	0.0152064
822.516	0.0152198
822.594	0.0151621
822.673	0.0151754
822.751	0.0150182
822.829	0.0150721
822.907	0.0150160
822.985	0.0149617
823.063	0.0149892
823.141	0.0148106
823.219	0.0148144
823.298	0.0148646
823.376	0.0148571
823.454	0.0147645
823.532	0.0146393
823.610	0.0145621
823.688	0.0146253
823.766	0.0148024
823.844	0.0145730
823.923	0.0147168
824.001	0.0147459
824.079	0.0147777
824.157	0.0149223
824.235	0.0147746
824.313	0.0149609
824.391	0.0150337
824.469	0.0151412
824.548	0.0150324
824.626	0.0150745
824.704	0.0151465
824.782	0.0152029
824.860	0.0152463
824.938	0.0150921
825.016	0.0152489
825.094	0.0153368
825.173	0.0153415
825.251	0.0153307
825.329	0.0153409
825.407	0.0154720
825.485	0.0153993
825.563	0.0154015
825.641	0.0153745
825.719	0.0154199
825.798	0.0154370
825.876	0.0155156
825.954	0.0154995
826.032	0.0154189
826.110	0.0154063
826.188	0.0153626
826.266	0.0154344
826.344	0.0153860
826.423	0.0153263
826.501	0.0154622
826.579	0.0153381
826.657	0.0153726
826.735	0.0154020
826.813	0.0153646
826.891	0.0152688
826.969	0.0153048
827.048	0.0154341
827.126	0.0152389
827.204	0.0154089
827.282	0.0153349
827.360	0.0153211
827.438	0.0152972
827.516	0.0152721
827.594	0.0153622
827.673	0.0152043
827.751	0.0152163
827.829	0.0151481
827.907	0.0151732
827.985	0.0151412
828.063	0.0150921
828.141	0.0151709
828.219	0.0151816
828.298	0.0150568
828.376	0.0150935
828.454	0.0149772
828.532	0.0149757
828.610	0.0149716
828.688	0.0147982
828.766	0.0147631
828.844	0.0147622
828.923	0.0146058
829.001	0.0147694
829.079	0.0146754
829.157	0.0145800
829.235	0.0145642
829.313	0.0145333
829.391	0.0146522
829.469	0.0145966
829.548	0.0146990
829.626	0.0146110
829.704	0.0147150
829.782	0.0148362
829.860	0.0148585
829.938	0.0148688
830.016	0.0149051
830.094	0.0150168
830.173	0.0149488
830.251	0.0150806
830.329	0.0149603
830.407	0.0152142
830.485	0.0153080
830.563	0.0151603
830.641	0.0152247
830.719	0.0154089
830.798	0.0154263
830.876	0.0154607
830.954	0.0155533
831.032	0.0155744
831.110	0.0157655
831.188	0.0158882
831.266	0.0157900
831.344	0.0158814
831.423	0.0158374
831.501	0.0159299
831.579	0.0159366
831.657	0.0160912
831.735	0.0160258
831.813	0.0159959
831.891	0.0160551
831.969	0.0159089
832.048	0.0160228
832.126	0.0158231
832.204	0.0157911
832.282	0.0158387
832.360	0.0156447
832.438	0.0156396
832.516	0.0153740
832.594	0.0153695
832.673	0.0152429
832.751	0.0151687
832.829	0.0148988
832.907	0.0148452
832.985	0.0149026
833.063	0.0148857
833.141	0.0147272
833.219	0.0145766
833.298	0.0144128
833.376	0.0144688
833.454	0.0144323
833.532	0.0142593
833.610	0.0142825
833.688	0.0143360
833.766	0.0144005
833.844	0.0142388
833.923	0.0143966
834.001	0.0143383
834.079	0.0143521
834.157	0.0144055
834.235	0.0144876
834.313	0.0144808
834.391	0.0145238
834.469	0.0146193
834.548	0.0146720
834.626	0.0147401
834.704	0.0148876
834.782	0.0149574
834.860	0.0149414
834.938	0.0150912
835.016	0.0151893
835.094	0.0151933
835.173	0.0151223
835.251	0.0153036
835.329	0.0154758
835.407	0.0154525
835.485	0.0154364
835.563	0.0154816
835.641	0.0156436
835.719	0.0156792
835.798	0.0155977
835.876	0.0157336
835.954	0.0156860
836.032	0.0158229
836.110	0.0157600
836.188	0.0157411
836.266	0.0158016
836.344	0.0156786
836.423	0.0157060
836.501	0.0156081
836.579	0.0155630
836.657	0.0158418
836.735	0.0155751
836.813	0.0156083
836.891	0.0156178
836.969	0.0155910
837.048	0.0155915
837.126	0.0156430
837.204	0.0153712
837.282	0.0154424
837.360	0.0153931
837.438	0.0153982
837.516	0.0154611
837.594	0.0153136
837.673	0.0152542
837.751	0.0153102
837.829	0.0152962
837.907	0.0150729
837.985	0.0151598
838.063	0.0151552
838.141	0.0150140
838.219	0.0149817
838.298	0.0150139
838.376	0.0148282
838.454	0.0146944
838.532	0.0148804
838.610	0.0147414
838.688	0.0147852
838.766	0.0146559
838.844	0.0145187
838.923	0.0146378
839.001	0.0146163
839.079	0.0146521
839.157	0.0146902
839.235	0.0148189
839.313	0.0147803
839.391	0.0147560
839.469	0.0148335
839.548	0.0147646
839.626	0.0148562
839.704	0.0149433
839.782	0.0149156
839.860	0.0149785
839.938	0.0149796
840.016	0.0151176
840.094	0.0152397
840.173	0.0151967
840.251	0.0153138
840.329	0.0152318
840.407	0.0152415
840.485	0.0153603
840.563	0.0154793
840.641	0.0153578
840.719	0.0153842
840.798	0.0153410
840.876	0.0154623
840.954	0.0153952
841.032	0.0153790
841.110	0.0156517
841.188	0.0155468
841.266	0.0155436
841.344	0.0154262
841.423	0.0154546
841.501	0.0157701
841.579	0.0155847
841.657	0.0155523
841.735	0.0155039
841.813	0.0154981
841.891	0.0155188
841.969	0.0154808
842.048	0.0155417
842.126	0.0156424
842.204	0.0155731
842.282	0.0155116
842.360	0.0154881
842.438	0.0154229
842.516	0.0155282
842.594	0.0154599
842.673	0.0154552
842.751	0.0154128
842.829	0.0153371
842.907	0.0152651
842.985	0.0153740
843.063	0.0151840
843.141	0.0152171
843.219	0.0150962
843.298	0.0151181
843.376	0.0151115
843.454	0.0150945
843.532	0.0151328
843.610	0.0150661
843.688	0.0150784
843.766	0.0150301
843.844	0.0149748
843.923	0.0150278
844.001	0.0150716
844.079	0.0151129
844.157	0.0150603
844.235	0.0151114
844.313	0.0150374
844.391	0.0150742
844.469	0.0150493
844.548	0.0150421
844.626	0.0151006
844.704	0.0151513
844.782	0.0151085
844.860	0.0150244
844.938	0.0150913
845.016	0.0150433
845.094	0.0150813
845.173	0.0150445
845.251	0.0149377
845.329	0.0151035
845.407	0.0151011
845.485	0.0150847
845.563	0.0150227
845.641	0.0149685
845.719	0.0149669
845.798	0.0150735
845.876	0.0149165
845.954	0.0151119
846.032	0.0150481
846.110	0.0150166
846.188	0.0149873
846.266	0.0151319
846.344	0.0149063
846.423	0.0149512
846.501	0.0150410
846.579	0.0149918
846.657	0.0151531
846.735	0.0151888
846.813	0.0153114
846.891	0.0153347
846.969	0.0153784
847.048	0.0153063
847.126	0.0153608
847.204	0.0155006
847.282	0.0155926
847.360	0.0155151
847.438	0.0154929
847.516	0.0157277
847.594	0.0156280
847.673	0.0156345
847.751	0.0156380
847.829	0.0154816
847.907	0.0155878
847.985	0.0155848
848.063	0.0155672
848.141	0.0154530
848.219	0.0154723
848.298	0.0155479
848.376	0.0154240
848.454	0.0153318
848.532	0.0153297
848.610	0.0152374
848.688	0.0153989
848.766	0.0154021
848.844	0.0152711
848.923	0.0151972
849.001	0.0151746
849.079	0.0151952
849.157	0.0149719
849.235	0.0152043
849.313	0.0150926
849.391	0.0151566
849.469	0.0150625
849.548	0.0149774
849.626	0.0150039
849.704	0.0149529
849.782	0.0150130
849.860	0.0150146
849.938	0.0149731
850.016	0.0149722
850.094	0.0149628
850.173	0.0149428
850.251	0.0150319
850.329	0.0152449
850.407	0.0151037
850.485	0.0150446
850.563	0.0150485
850.641	0.0149583
850.719	0.0150076
850.798	0.0150362
850.876	0.0150893
850.954	0.0150877
851.032	0.0150936
851.110	0.0151897
851.188	0.0151656
851.266	0.0150652
851.344	0.0150437
851.423	0.0150815
851.501	0.0151778
851.579	0.0152703
851.657	0.0152760
851.735	0.0152393
851.813	0.0152892
851.891	0.0153544
851.969	0.0153067
852.048	0.0153586
852.126	0.0153259
852.204	0.0153685
852.282	0.0152534
852.360	0.0153165
852.438	0.0152808
852.516	0.0153584
852.594	0.0152257
852.673	0.0151768
852.751	0.0150473
852.829	0.0151362
852.907	0.0150437
852.985	0.0151149
853.063	0.0150729
853.141	0.0151126
853.219	0.0150104
853.298	0.0151029
853.376	0.0150187
853.454	0.0149685
853.532	0.0151193
853.610	0.0149982
853.688	0.0151220
853.766	0.0150692
853.844	0.0151130
853.923	0.0150388
854.001	0.0153082
854.079	0.0152162
854.157	0.0150966
854.235	0.0153727
854.313	0.0153675
854.391	0.0153045
854.469	0.0153323
854.548	0.0152255
854.626	0.0153439
854.704	0.0153699
854.782	0.0153834
854.860	0.0153694
854.938	0.0153411
855.016	0.0152534
855.094	0.0152845
855.173	0.0153493
855.251	0.0152604
855.329	0.0153748
855.407	0.0152720
855.485	0.0152388
855.563	0.0152999
855.641	0.0152810
855.719	0.0152364
855.798	0.0152866
855.876	0.0151803
855.954	0.0152454
856.032	0.0151749
856.110	0.0151872
856.188	0.0155102
856.266	0.0154746
856.344	0.0153275
856.423	0.0154320
856.501	0.0153922
856.579	0.0154758
856.657	0.0152718
856.735	0.0155128
856.813	0.0154399
856.891	0.0155672
856.969	0.0154989
857.048	0.0153922
857.126	0.0154279
857.204	0.0151242
857.282	0.0152580
857.360	0.0152022
857.438	0.0151588
857.516	0.0151434
857.594	0.0151050
857.673	0.0151966
857.751	0.0151720
857.829	0.0150609
857.907	0.0152787
857.985	0.0152348
858.063	0.0150956
858.141	0.0151190
858.219	0.0151547
858.298	0.0151520
858.376	0.0150128
858.454	0.0150947
858.532	0.0150157
858.610	0.0150867
858.688	0.0150175
858.766	0.0150313
858.844	0.0150840
858.923	0.0150295
859.001	0.0149643
859.079	0.0149364
859.157	0.0147859
859.235	0.0147763
859.313	0.0148917
859.391	0.0148539
859.469	0.0147077
859.548	0.0147472
859.626	0.0148473
859.704	0.0149067
859.782	0.0148831
859.860	0.0149047
859.938	0.0148866
860.016	0.0149471
860.094	0.0149889
860.173	0.0150661
860.251	0.0150962
860.329	0.0151144
860.407	0.0151340
860.485	0.0151266
860.563	0.0153490
860.641	0.0153371
860.719	0.0152761
860.798	0.0154794
860.876	0.0154637
860.954	0.0154419
861.032	0.0155350
861.110	0.0157973
861.188	0.0157690
861.266	0.0156802
861.344	0.0156214
861.423	0.0157453
861.501	0.0157610
861.579	0.0157683
861.657	0.0157378
861.735	0.0157790
861.813	0.0157647
861.891	0.0157988
861.969	0.0158011
862.048	0.0158059
862.126	0.0157606
862.204	0.0155762
862.282	0.0156421
862.360	0.0155032
862.438	0.0155340
862.516	0.0155212
862.594	0.0154141
862.673	0.0153756
862.751	0.0154806
862.829	0.0153803
862.907	0.0152940
862.985	0.0152325
863.063	0.0150790
863.141	0.0152390
863.219	0.0150063
863.298	0.0150761
863.376	0.0151612
863.454	0.0149551
863.532	0.0148331
863.610	0.0148802
863.688	0.0149086
863.766	0.0148550
863.844	0.0147383
863.923	0.0147836
864.001	0.0145330
864.079	0.0147343
864.157	0.0147147
864.235	0.0147110
864.313	0.0146944
864.391	0.0146516
864.469	0.0146244
864.548	0.0146647
864.626	0.0146787
864.704	0.0147113
864.782	0.0146893
864.860	0.0147413
864.938	0.0149568
865.016	0.0147449
865.094	0.0148689
865.173	0.0149346
865.251	0.0149586
865.329	0.0149685
865.407	0.0149203
865.485	0.0150910
865.563	0.0150225
865.641	0.0151495
865.719	0.0151968
865.798	0.0152323
865.876	0.0153363
865.954	0.0152578
866.032	0.0153790
866.110	0.0155858
866.188	0.0153476
866.266	0.0155279
866.344	0.0155328
866.423	0.0155676
866.501	0.0155714
866.579	0.0156098
866.657	0.0157433
866.735	0.0157451
866.813	0.0157953
866.891	0.0156104
866.969	0.0155204
867.048	0.0157008
867.126	0.0157969
867.204	0.0157526
867.282	0.0156748
867.360	0.0157854
867.438	0.0157393
867.516	0.0156476
867.594	0.0156885
867.673	0.0155941
867.751	0.0156563
867.829	0.0156985
867.907	0.0157147
867.985	0.0154782
868.063	0.0156092
868.141	0.0154131
868.219	0.0154990
868.298	0.0156004
868.376	0.0153306
868.454	0.0153139
868.532	0.0152905
868.610	0.0152299
868.688	0.0151991
868.766	0.0150960
868.844	0.0150183
868.923	0.0149432
869.001	0.0149369
869.079	0.0149915
869.157	0.0149648
869.235	0.0148895
869.313	0.0149170
869.391	0.0146986
869.469	0.0147351
869.548	0.0147126
869.626	0.0147812
869.704	0.0147639
869.782	0.0146784
869.860	0.0145795
869.938	0.0146023
870.016	0.0147363
870.094	0.0146642
870.173	0.0145479
870.251	0.0146905
870.329	0.0145999
870.407	0.0147132
870.485	0.0148386
870.563	0.0148082
870.641	0.0147263
870.719	0.0147941
870.798	0.0148985
870.876	0.0149004
870.954	0.0148607
871.032	0.0150294
871.110	0.0147737
871.188	0.0150708
871.266	0.0151094
871.344	0.0151357
871.423	0.0151474
871.501	0.0151202
871.579	0.0151172
871.657	0.0152921
871.735	0.0152032
871.813	0.0153510
871.891	0.0155273
871.969	0.0153362
872.048	0.0154350
872.126	0.0153994
872.204	0.0155025
872.282	0.0154892
872.360	0.0154475
872.438	0.0156294
872.516	0.0155458
872.594	0.0155809
872.673	0.0155676
872.751	0.0155347
872.829	0.0155563
872.907	0.0156075
872.985	0.0157784
873.063	0.0154598
873.141	0.0155297
873.219	0.0155794
873.298	0.0154858
873.376	0.0155714
873.454	0.0155325
873.532	0.0154243
873.610	0.0154980
873.688	0.0154581
873.766	0.0153902
873.844	0.0153747
873.923	0.0154062
874.001	0.0153362
874.079	0.0152262
874.157	0.0153224
874.235	0.0151704
874.313	0.0151436
874.391	0.0151559
874.469	0.0151651
874.548	0.0151356
874.626	0.0151096
874.704	0.0150082
874.782	0.0151595
874.860	0.0150178
874.938	0.0150525
875.016	0.0149540
875.094	0.0150639
875.173	0.0152264
875.251	0.0150339
875.329	0.0150083
875.407	0.0150316
875.485	0.0149992
875.563	0.0151205
875.641	0.0150440
875.719	0.0149821
875.798	0.0149244
875.876	0.0148860
875.954	0.0150918
876.032	0.0150073
876.110	0.0149351
876.188	0.0151376
876.266	0.0151333
876.344	0.0150386
876.423	0.0149715
876.501	0.0150471
876.579	0.0151016
876.657	0.0150815
876.735	0.0150844
876.813	0.0149033
876.891	0.0152271
876.969	0.0150896
877.048	0.0150620
877.126	0.0150846
877.204	0.0151304
877.282	0.0150810
877.360	0.0152055
877.438	0.0151598
877.516	0.0151083
877.594	0.0152022
877.673	0.0152102
877.751	0.0151082
877.829	0.0149178
877.907	0.0151852
877.985	0.0152007
878.063	0.0152287
878.141	0.0151853
878.219	0.0152328
878.298	0.0153303
878.376	0.0151508
878.454	0.0152734
878.532	0.0153325
878.610	0.0153771
878.688	0.0152944
878.766	0.0153827
878.844	0.0154395
878.923	0.0153921
879.001	0.0154340
879.079	0.0154127
879.157	0.0154236
879.235	0.0154812
879.313	0.0155050
879.391	0.0154174
879.469	0.0155519
879.548	0.0155960
879.626	0.0154459
879.704	0.0154784
879.782	0.0156147
879.860	0.0155372
879.938	0.0156147
880.016	0.0156820
880.094	0.0154988
880.173	0.0154507
880.251	0.0155593
880.329	0.0156544
880.407	0.0154568
880.485	0.0155424
880.563	0.0155901
880.641	0.0155023
880.719	0.0154572
880.798	0.0155082
880.876	0.0154991
880.954	0.0153399
881.032	0.0153273
881.110	0.0153017
881.188	0.0153923
881.266	0.0152137
881.344	0.0151826
881.423	0.0152260
881.501	0.0152310
881.579	0.0150731
881.657	0.0151562
881.735	0.0149944
881.813	0.0149698
881.891	0.0148610
881.969	0.0149951
882.048	0.0148548
882.126	0.0148943
882.204	0.0148100
882.282	0.0149214
882.360	0.0147763
882.438	0.0147485
882.516	0.0149382
882.594	0.0148183
882.673	0.0147386
882.751	0.0146784
882.829	0.0147417
882.907	0.0148144
882.985	0.0147741
883.063	0.0147398
883.141	0.0146854
883.219	0.0147961
883.298	0.0148111
883.376	0.0147446
883.454	0.0149005
883.532	0.0149152
883.610	0.0149526
883.688	0.0149419
883.766	0.0149738
883.844	0.0150670
883.923	0.0151655
884.001	0.0152690
884.079	0.0151902
884.157	0.0154043
884.235	0.0155169
884.313	0.0155271
884.391	0.0153143
884.469	0.0154250
884.548	0.0154627
884.626	0.0155542
884.704	0.0154747
884.782	0.0154234
884.860	0.0154058
884.938	0.0153645
885.016	0.0153852
885.094	0.0154686
885.173	0.0154166
885.251	0.0154537
885.329	0.0154318
885.407	0.0154217
885.485	0.0154682
885.563	0.0155032
885.641	0.0155474
885.719	0.0154815
885.798	0.0155326
885.876	0.0154571
885.954	0.0155233
886.032	0.0155257
886.110	0.0154228
886.188	0.0154871
886.266	0.0154345
886.344	0.0152650
886.423	0.0153704
886.501	0.0153854
886.579	0.0153291
886.657	0.0153925
886.735	0.0152878
886.813	0.0151732
886.891	0.0150317
886.969	0.0151768
887.048	0.0150766
887.126	0.0150328
887.204	0.0150260
887.282	0.0151526
887.360	0.0149396
887.438	0.0149639
887.516	0.0150153
887.594	0.0150855
887.673	0.0149060
887.751	0.0150578
887.829	0.0150578
887.907	0.0151092
887.985	0.0149698
888.063	0.0149653
888.141	0.0150549
888.219	0.0150347
888.298	0.0150951
888.376	0.0151910
888.454	0.0150001
888.532	0.0150226
888.610	0.0150786
888.688	0.0150312
888.766	0.0150828
888.844	0.0150665
888.923	0.0149148
889.001	0.0148824
889.079	0.0151505
889.157	0.0151865
889.235	0.0150125
889.313	0.0149097
889.391	0.0149813
889.469	0.0148597
889.548	0.0149332
889.626	0.0149274
889.704	0.0149484
889.782	0.0149308
889.860	0.0150120
889.938	0.0151022
890.016	0.0148695
890.094	0.0149386
890.173	0.0150668
890.251	0.0150976
890.329	0.0151041
890.407	0.0151260
890.485	0.0149963
890.563	0.0151653
890.641	0.0152563
890.719	0.0153035
890.798	0.0153563
890.876	0.0153336
890.954	0.0153465
891.032	0.0155219
891.110	0.0154498
891.188	0.0154305
891.266	0.0154877
891.344	0.0154948
891.423	0.0153698
891.501	0.0154601
891.579	0.0155141
891.657	0.0155130
891.735	0.0155437
891.813	0.0155822
891.891	0.0155525
891.969	0.0155731
892.048	0.0153075
892.126	0.0153587
892.204	0.0153876
892.282	0.0152409
892.360	0.0153239
892.438	0.0153365
892.516	0.0152417
892.594	0.0151952
892.673	0.0152213
892.751	0.0153443
892.829	0.0152388
892.907	0.0151492
892.985	0.0151107
893.063	0.0152118
893.141	0.0152332
893.219	0.0151105
893.298	0.0150424
893.376	0.0151482
893.454	0.0150807
893.532	0.0150724
893.610	0.0150996
893.688	0.0150114
893.766	0.0149292
893.844	0.0149939
893.923	0.0149982
894.001	0.0150481
894.079	0.0149798
894.157	0.0149911
894.235	0.0149547
894.313	0.0148724
894.391	0.0149271
894.469	0.0150406
894.548	0.0151519
894.626	0.0151121
894.704	0.0149507
894.782	0.0151120
894.860	0.0151252
894.938	0.0150494
895.016	0.0152382
895.094	0.0152522
895.173	0.0152454
895.251	0.0152452
895.329	0.0152287
895.407	0.0153474
895.485	0.0153125
895.563	0.0151255
895.641	0.0154263
895.719	0.0153699
895.798	0.0152944
895.876	0.0152375
895.954	0.0152650
896.032	0.0152915
896.110	0.0153436
896.188	0.0152731
896.266	0.0152518
896.344	0.0153075
896.423	0.0152938
896.501	0.0153024
896.579	0.0151477
896.657	0.0151671
896.735	0.0153486
896.813	0.0152367
896.891	0.0151362
896.969	0.0150977
897.048	0.0151951
897.126	0.0152414
897.204	0.0151260
897.282	0.0152505
897.360	0.0152322
897.438	0.0151102
897.516	0.0151066
897.594	0.0150775
897.673	0.0151785
897.751	0.0152071
897.829	0.0153355
897.907	0.0153094
897.985	0.0151231
898.063	0.0151138
898.141	0.0151879
898.219	0.0151852
898.298	0.0152377
898.376	0.0152240
898.454	0.0152626
898.532	0.0151138
898.610	0.0151388
898.688	0.0150581
898.766	0.0150522
898.844	0.0151819
898.923	0.0150941
899.001	0.0151864
899.079	0.0153813
899.157	0.0152559
899.235	0.0152125
899.313	0.0152296
899.391	0.0152892
899.469	0.0152875
899.548	0.0153139
899.626	0.0153154
899.704	0.0153081
899.782	0.0152358
899.860	0.0151630
899.938	0.0152213
900.016	0.0151973
900.094	0.0152022
900.173	0.0151389
900.251	0.0151478
900.329	0.0153558
900.407	0.0153180
900.485	0.0153519
900.563	0.0153905
900.641	0.0152309
900.719	0.0153228
900.798	0.0153098
900.876	0.0153387
900.954	0.0152319
901.032	0.0152434
901.110	0.0152433
901.188	0.0151327
901.266	0.0153094
901.344	0.0151103
901.423	0.0153013
901.501	0.0153509
901.579	0.0153939
901.657	0.0153921
901.735	0.0153305
901.813	0.0153498
901.891	0.0153111
901.969	0.0153318
902.048	0.0152873
902.126	0.0152858
902.204	0.0150293
902.282	0.0151666
902.360	0.0151193
902.438	0.0152095
902.516	0.0150149
902.594	0.0150597
902.673	0.0151726
902.751	0.0149755
902.829	0.0150997
902.907	0.0151426
902.985	0.0151729
903.063	0.0152840
903.141	0.0152547
903.219	0.0152898
903.298	0.0152389
903.376	0.0152404
903.454	0.0152702
903.532	0.0152940
903.610	0.0151733
903.688	0.0151328
903.766	0.0151189
903.844	0.0149768
903.923	0.0149007
904.001	0.0148043
904.079	0.0149959
904.157	0.0149851
904.235	0.0150243
904.313	0.0150464
904.391	0.0150829
904.469	0.0151185
904.548	0.0151771
904.626	0.0152438
904.704	0.0153277
904.782	0.0152088
904.860	0.0153546
904.938	0.0152365
905.016	0.0152989
905.094	0.0153771
905.173	0.0152946
905.251	0.0152756
905.329	0.0151768
905.407	0.0152543
905.485	0.0151215
905.563	0.0151083
905.641	0.0151923
905.719	0.0150058
905.798	0.0149570
905.876	0.0150661
905.954	0.0149105
906.032	0.0148557
906.110	0.0148937
906.188	0.0148983
906.266	0.0148795
906.344	0.0149326
906.423	0.0151806
906.501	0.0151301
906.579	0.0152145
906.657	0.0153281
906.735	0.0153580
906.813	0.0154268
906.891	0.0154939
906.969	0.0153646
907.048	0.0155260
907.126	0.0153220
907.204	0.0151889
907.282	0.0153852
907.360	0.0153763
907.438	0.0152383
907.516	0.0152308
907.594	0.0152258
907.673	0.0152726
907.751	0.0151626
907.829	0.0151702
907.907	0.0150921
907.985	0.0152007
908.063	0.0151231
908.141	0.0149968
908.219	0.0151602
908.298	0.0152347
908.376	0.0152009
908.454	0.0152533
908.532	0.0151784
908.610	0.0151836
908.688	0.0151983
908.766	0.0152453
908.844	0.0152908
908.923	0.0153651
909.001	0.0152467
909.079	0.0152773
909.157	0.0151541
909.235	0.0150725
909.313	0.0151651
909.391	0.0150825
909.469	0.0150445
909.548	0.0150250
909.626	0.0148763
909.704	0.0148685
909.782	0.0149229
909.860	0.0150229
909.938	0.0149167
910.016	0.0148550
910.094	0.0148520
910.173	0.0148700
910.251	0.0148713
910.329	0.0149290
910.407	0.0149990
910.485	0.0149729
910.563	0.0150459
910.641	0.0150830
910.719	0.0152378
910.798	0.0152178
910.876	0.0153043
910.954	0.0153326
911.032	0.0153051
911.110	0.0154498
911.188	0.0154120
911.266	0.0152391
911.344	0.0154604
911.423	0.0154092
911.501	0.0154472
911.579	0.0152998
911.657	0.0154230
911.735	0.0153340
911.813	0.0153293
911.891	0.0153243
911.969	0.0150766
912.048	0.0151574
912.126	0.0151163
912.204	0.0150519
912.282	0.0150619
912.360	0.0150379
912.438	0.0150901
912.516	0.0150364
912.594	0.0150631
912.673	0.0150169
912.751	0.0151302
912.829	0.0150266
912.907	0.0151572
912.985	0.0151918
913.063	0.0152230
913.141	0.0153137
913.219	0.0151629
913.298	0.0153710
913.376	0.0155201
913.454	0.0153656
913.532	0.0154481
913.610	0.0153520
913.688	0.0153811
913.766	0.0153323
913.844	0.0153912
913.923	0.0153066
914.001	0.0152046
914.079	0.0152920
914.157	0.0153022
914.235	0.0150795
914.313	0.0151140
914.391	0.0151653
914.469	0.0152297
914.548	0.0150713
914.626	0.0149276
914.704	0.0150629
914.782	0.0150557
914.860	0.0150614
914.938	0.0150731
915.016	0.0150929
915.094	0.0149781
915.173	0.0150739
915.251	0.0149910
915.329	0.0151092
915.407	0.0150023
915.485	0.0149541
915.563	0.0150620
915.641	0.0151550
915.719	0.0150352
915.798	0.0152127
915.876	0.0152116
915.954	0.0152832
916.032	0.0153378
916.110	0.0152274
916.188	0.0152241
916.266	0.0150307
916.344	0.0152254
916.423	0.0152629
916.501	0.0152448
916.579	0.0151649
916.657	0.0152151
916.735	0.0152223
916.813	0.0151904
916.891	0.0152034
916.969	0.0151479
917.048	0.0150377
917.126	0.0151204
917.204	0.0151357
917.282	0.0150835
917.360	0.0150993
917.438	0.0150662
917.516	0.0150881
917.594	0.0150366
917.673	0.0150256
917.751	0.0150850
917.829	0.0151205
917.907	0.0151084
917.985	0.0149990
918.063	0.0150702
918.141	0.0150471
918.219	0.0151363
918.298	0.0151144
918.376	0.0151923
918.454	0.0151228
918.532	0.0151588
918.610	0.0153337
918.688	0.0153418
918.766	0.0153732
918.844	0.0154335
918.923	0.0153164
919.001	0.0153816
919.079	0.0152596
919.157	0.0151852
919.235	0.0153954
919.313	0.0152379
919.391	0.0151801
919.469	0.0151788
919.548	0.0151723
919.626	0.0151735
919.704	0.0150936
919.782	0.0151952
919.860	0.0151233
919.938	0.0150867
920.016	0.0151202
920.094	0.0150491
920.173	0.0150993
920.251	0.0149603
920.329	0.0151174
920.407	0.0152328
920.485	0.0151279
920.563	0.0151398
920.641	0.0151080
920.719	0.0151259
920.798	0.0151823
920.876	0.0150600
920.954	0.0152217
921.032	0.0153381
921.110	0.0152240
921.188	0.0153354
921.266	0.0153390
921.344	0.0154191
921.423	0.0153065
921.501	0.0151986
921.579	0.0152247
921.657	0.0152847
921.735	0.0152567
921.813	0.0152717
921.891	0.0153750
921.969	0.0153316
922.048	0.0152206
922.126	0.0151112
922.204	0.0153750
922.282	0.0151926
922.360	0.0151565
922.438	0.0152012
922.516	0.0153297
922.594	0.0152130
922.673	0.0149779
922.751	0.0151400
922.829	0.0150040
922.907	0.0151065
922.985	0.0150087
923.063	0.0150578
923.141	0.0149770
923.219	0.0151086
923.298	0.0149674
923.376	0.0150655
923.454	0.0151025
923.532	0.0151369
923.610	0.0150182
923.688	0.0150709
923.766	0.0152286
923.844	0.0152297
923.923	0.0152045
924.001	0.0151318
924.079	0.0152064
924.157	0.0151583
924.235	0.0152872
924.313	0.0152093
924.391	0.0151794
924.469	0.0152592
924.548	0.0153413
924.626	0.0151392
924.704	0.0152548
924.782	0.0152252
924.860	0.0152237
924.938	0.0152682
925.016	0.0153532
925.094	0.0151909
925.173	0.0151736
925.251	0.0151163
925.329	0.0151588
925.407	0.0151488
925.485	0.0151344
925.563	0.0151738
925.641	0.0152120
925.719	0.0150552
925.798	0.0152182
925.876	0.0151867
925.954	0.0152068
926.032	0.0151862
926.110	0.0151971
926.188	0.0151856
926.266	0.0151656
926.344	0.0152131
926.423	0.0152622
926.501	0.0151057
926.579	0.0151231
926.657	0.0151224
926.735	0.0151543
926.813	0.0150730
926.891	0.0151706
926.969	0.0152740
927.048	0.0150390
927.126	0.0150526
927.204	0.0150926
927.282	0.0151313
927.360	0.0153384
927.438	0.0152972
927.516	0.0152347
927.594	0.0151141
927.673	0.0152763
927.751	0.0152611
927.829	0.0152914
927.907	0.0152207
927.985	0.0152802
928.063	0.0153856
928.141	0.0153748
928.219	0.0152546
928.298	0.0152319
928.376	0.0152733
928.454	0.0153529
928.532	0.0151851
928.610	0.0152786
928.688	0.0153709
928.766	0.0153035
928.844	0.0153427
928.923	0.0152492
929.001	0.0151446
929.079	0.0152609
929.157	0.0153394
929.235	0.0153234
929.313	0.0152699
929.391	0.0151182
929.469	0.0152486
929.548	0.0152662
929.626	0.0151676
929.704	0.0151388
929.782	0.0150719
929.860	0.0149997
929.938	0.0150711
930.016	0.0151623
930.094	0.0149756
930.173	0.0149638
930.251	0.0149833
930.329	0.0151054
930.407	0.0151258
930.485	0.0149598
930.563	0.0150954
930.641	0.0150767
930.719	0.0150914
930.798	0.0151495
930.876	0.0151552
930.954	0.0149895
931.032	0.0151376
931.110	0.0152455
931.188	0.0150658
931.266	0.0150816
931.344	0.0152110
931.423	0.0152338
931.501	0.0151531
931.579	0.0150902
931.657	0.0152843
931.735	0.0151612
931.813	0.0151350
931.891	0.0152296
931.969	0.0151855
932.048	0.0152017
932.126	0.0152411
932.204	0.0153031
932.282	0.0151766
932.360	0.0151855
932.438	0.0150874
932.516	0.0151915
932.594	0.0153277
932.673	0.0153355
932.751	0.0152415
932.829	0.0152676
932.907	0.0153410
932.985	0.0154040
933.063	0.0153036
933.141	0.0152708
933.219	0.0152885
933.298	0.0153011
933.376	0.0153206
933.454	0.0152077
933.532	0.0151344
933.610	0.0151286
933.688	0.0153006
933.766	0.0152164
933.844	0.0152580
933.923	0.0152712
934.001	0.0150897
934.079	0.0151856
934.157	0.0152230
934.235	0.0151186
934.313	0.0151566
934.391	0.0151158
934.469	0.0151924
934.548	0.0151736
934.626	0.0151585
934.704	0.0151880
934.782	0.0151090
934.860	0.0152197
934.938	0.0152380
935.016	0.0151044
935.094	0.0152017
935.173	0.0151471
935.251	0.0151782
935.329	0.0151857
935.407	0.0152925
935.485	0.0152084
935.563	0.0151639
935.641	0.0151923
935.719	0.0152830
935.798	0.0151559
935.876	0.0152639
935.954	0.0153056
936.032	0.0153117
936.110	0.0152279
936.188	0.0151485
936.266	0.0151315
936.344	0.0152120
936.423	0.0152538
936.501	0.0151861
936.579	0.0151250
936.657	0.0153036
936.735	0.0153006
936.813	0.0152319
936.891	0.0152080
936.969	0.0151247
937.048	0.0151395
937.126	0.0152118
937.204	0.0152265
937.282	0.0152103
937.360	0.0151335
937.438	0.0151587
937.516	0.0150853
937.594	0.0150394
937.673	0.0151675
937.751	0.0150992
937.829	0.0150141
937.907	0.0150862
937.985	0.0150722
938.063	0.0152103
938.141	0.0151699
938.219	0.0151206
938.298	0.0152295
938.376	0.0150806
938.454	0.0151936
938.532	0.0153831
938.610	0.0154110
938.688	0.0152596
938.766	0.0152674
938.844	0.0152402
938.923	0.0152705
939.001	0.0151828
939.079	0.0151766
939.157	0.0153128
939.235	0.0152630
939.313	0.0154918
939.391	0.0153336
939.469	0.0152045
939.548	0.0150842
939.626	0.0151510
939.704	0.0152199
939.782	0.0151104
939.860	0.0151452
939.938	0.0153222
940.016	0.0151494
940.094	0.0151076
940.173	0.0150896
940.251	0.0151289
940.329	0.0151209
940.407	0.0151105
940.485	0.0149303
940.563	0.0149385
940.641	0.0150571
940.719	0.0152380
940.798	0.0152515
940.876	0.0151535
940.954	0.0151257
941.032	0.0151656
941.110	0.0151944
941.188	0.0152437
941.266	0.0151924
941.344	0.0151252
941.423	0.0152043
941.501	0.0151508
941.579	0.0150932
941.657	0.0152332
941.735	0.0152435
941.813	0.0151836
941.891	0.0152689
941.969	0.0152834
942.048	0.0152846
942.126	0.0151497
942.204	0.0152286
942.282	0.0152419
942.360	0.0152180
942.438	0.0153220
942.516	0.0152472
942.594	0.0152094
942.673	0.0153236
942.751	0.0153580
942.829	0.0152073
942.907	0.0152550
942.985	0.0153567
943.063	0.0152290
943.141	0.0151550
943.219	0.0152332
943.298	0.0153244
943.376	0.0152338
943.454	0.0153017
943.532	0.0152661
943.610	0.0152299
943.688	0.0153101
943.766	0.0153590
943.844	0.0152914
943.923	0.0154878
944.001	0.0153075
944.079	0.0152471
944.157	0.0153409
944.235	0.0152565
944.313	0.0151884
944.391	0.0152568
944.469	0.0153158
944.548	0.0153039
944.626	0.0150559
944.704	0.0151900
944.782	0.0152448
944.860	0.0152784
944.938	0.0151103
945.016	0.0152614
945.094	0.0152120
945.173	0.0151981
945.251	0.0152295
945.329	0.0150953
945.407	0.0150784
945.485	0.0152238
945.563	0.0151260
945.641	0.0152430
945.719	0.0151253
945.798	0.0150642
945.876	0.0151811
945.954	0.0150980
946.032	0.0151460
946.110	0.0151751
946.188	0.0151350
946.266	0.0150764
946.344	0.0151014
946.423	0.0150542
946.501	0.0151858
946.579	0.0151672
946.657	0.0150401
946.735	0.0151437
946.813	0.0151714
946.891	0.0150834
946.969	0.0151949
947.048	0.0152638
947.126	0.0151818
947.204	0.0150981
947.282	0.0150368
947.360	0.0152715
947.438	0.0152592
947.516	0.0153645
947.594	0.0153290
947.673	0.0153084
947.751	0.0152271
947.829	0.0153030
947.907	0.0153642
947.985	0.0153492
948.063	0.0153114
948.141	0.0151998
948.219	0.0151741
948.298	0.0151786
948.376	0.0152551
948.454	0.0153793
948.532	0.0152447
948.610	0.0151250
948.688	0.0152206
948.766	0.0151604
948.844	0.0151864
948.923	0.0152695
949.001	0.0152329
949.079	0.0151476
949.157	0.0151821
949.235	0.0152687
949.313	0.0151710
949.391	0.0152361
949.469	0.0151636
949.548	0.0151212
949.626	0.0151644
949.704	0.0152190
949.782	0.0151712
949.860	0.0152068
949.938	0.0151801
950.016	0.0151923
950.094	0.0151117
950.173	0.0152293
950.251	0.0151657
950.329	0.0152306
950.407	0.0151055
950.485	0.0151059
950.563	0.0151494
950.641	0.0152678
950.719	0.0152332
950.798	0.0151855
950.876	0.0152020
950.954	0.0150849
951.032	0.0151842
951.110	0.0152351
951.188	0.0153049
951.266	0.0152238
951.344	0.0153336
951.423	0.0152840
951.501	0.0152497
951.579	0.0151588
951.657	0.0151376
951.735	0.0152151
951.813	0.0152497
951.891	0.0152992
951.969	0.0152646
952.048	0.0152953
952.126	0.0152139
952.204	0.0152993
952.282	0.0153286
952.360	0.0152298
952.438	0.0152795
952.516	0.0152768
952.594	0.0153129
952.673	0.0152039
952.751	0.0153079
952.829	0.0152461
952.907	0.0152848
952.985	0.0152737
953.063	0.0152464
953.141	0.0151910
953.219	0.0152217
953.298	0.0152380
953.376	0.0152014
953.454	0.0153584
953.532	0.0154221
953.610	0.0152055
953.688	0.0151842
953.766	0.0152930
953.844	0.0152370
953.923	0.0153077
954.001	0.0152337
954.079	0.0152261
954.157	0.0152177
954.235	0.0152147
954.313	0.0151914
954.391	0.0152454
954.469	0.0152430
954.548	0.0153207
954.626	0.0152895
954.704	0.0152397
954.782	0.0152687
954.860	0.0152563
954.938	0.0153378
955.016	0.0152605
955.094	0.0151310
955.173	0.0153099
955.251	0.0151865
955.329	0.0151100
955.407	0.0152207
955.485	0.0152351
955.563	0.0151876
955.641	0.0153107
955.719	0.0152049
955.798	0.0151010
955.876	0.0151423
955.954	0.0151877
956.032	0.0151869
956.110	0.0152029
956.188	0.0150754
956.266	0.0151205
956.344	0.0150984
956.423	0.0150354
956.501	0.0150673
956.579	0.0152153
956.657	0.0152027
956.735	0.0152265
956.813	0.0151624
956.891	0.0151054
956.969	0.0153471
957.048	0.0152492
957.126	0.0151519
957.204	0.0151789
957.282	0.0151371
957.360	0.0151788
957.438	0.0152107
957.516	0.0152155
957.594	0.0152567
957.673	0.0152386
957.751	0.0151595
957.829	0.0151793
957.907	0.0152773
957.985	0.0153775
958.063	0.0153481
958.141	0.0154269
958.219	0.0151708
958.298	0.0153107
958.376	0.0154015
958.454	0.0152144
958.532	0.0151929
958.610	0.0153284
958.688	0.0153042
958.766	0.0153088
958.844	0.0153017
958.923	0.0152628
959.001	0.0152651
959.079	0.0152325
959.157	0.0151649
959.235	0.0152554
959.313	0.0152769
959.391	0.0151092
959.469	0.0152403
959.548	0.0152343
959.626	0.0151541
959.704	0.0151696
959.782	0.0150963
959.860	0.0152876
959.938	0.0151707
960.016	0.0151111
960.094	0.0150841
960.173	0.0151322
960.251	0.0151560
960.329	0.0151212
960.407	0.0150522
960.485	0.0150837
960.563	0.0150208
960.641	0.0150713
960.719	0.0152015
960.798	0.0151764
960.876	0.0151038
960.954	0.0151482
961.032	0.0151495
961.110	0.0151778
961.188	0.0151972
961.266	0.0151806
961.344	0.0151266
961.423	0.0151506
961.501	0.0151434
961.579	0.0151303
961.657	0.0151768
961.735	0.0151139
961.813	0.0153277
961.891	0.0152498
961.969	0.0152648
962.048	0.0151744
962.126	0.0152259
962.204	0.0152737
962.282	0.0151301
962.360	0.0151359
962.438	0.0151853
962.516	0.0150877
962.594	0.0151295
962.673	0.0151957
962.751	0.0153059
962.829	0.0152235
962.907	0.0151765
962.985	0.0152274
963.063	0.0152589
963.141	0.0153855
963.219	0.0152333
963.298	0.0151625
963.376	0.0152955
963.454	0.0151360
963.532	0.0151419
963.610	0.0152570
963.688	0.0153345
963.766	0.0151947
963.844	0.0151866
963.923	0.0152455
964.001	0.0153506
964.079	0.0154842
964.157	0.0153464
964.235	0.0153466
964.313	0.0154007
964.391	0.0154052
964.469	0.0152859
964.548	0.0155048
964.626	0.0152692
964.704	0.0151720
964.782	0.0152219
964.860	0.0153264
964.938	0.0152032
965.016	0.0150211
965.094	0.0152043
965.173	0.0152113
965.251	0.0152077
965.329	0.0151167
965.407	0.0150550
965.485	0.0151080
965.563	0.0150813
965.641	0.0149848
965.719	0.0150262
965.798	0.0149648
965.876	0.0151554
965.954	0.0151266
966.032	0.0151360
966.110	0.0150209
966.188	0.0153606
966.266	0.0152504
966.344	0.0152831
966.423	0.0153669
966.501	0.0151974
966.579	0.0151471
966.657	0.0151424
966.735	0.0151875
966.813	0.0149907
966.891	0.0150788
966.969	0.0150717
967.048	0.0150326
967.126	0.0151564
967.204	0.0149386
967.282	0.0149211
967.360	0.0150153
967.438	0.0150647
967.516	0.0150085
967.594	0.0150413
967.673	0.0151186
967.751	0.0150332
967.829	0.0151470
967.907	0.0153004
967.985	0.0152055
968.063	0.0151553
968.141	0.0154090
968.219	0.0153902
968.298	0.0154561
968.376	0.0154282
968.454	0.0154269
968.532	0.0154202
968.610	0.0154521
968.688	0.0152267
968.766	0.0154218
968.844	0.0152724
968.923	0.0151849
969.001	0.0151854
969.079	0.0151377
969.157	0.0151834
969.235	0.0151757
969.313	0.0152306
969.391	0.0151722
969.469	0.0150946
969.548	0.0152499
969.626	0.0152540
969.704	0.0152068
969.782	0.0151140
969.860	0.0152198
969.938	0.0150494
